Text Inputs : Specimen label,"2.12"
General : Start Date,1/28/2011 12:51 PM
General : End Date,1/28/2011 12:54 PM
Maximum Compressive load : Maximum Compressive load,6.81255,kgf
Maximum Compressive load : Compressive stress at Maximum Compressive load,0.71448,MPa

Time,Extension,Load
(sec),(mm),(N)
0.00000,-0.00007,-0.01372
0.00180,-0.00007,-0.01352
0.10000,-0.00007,0.00082
0.20000,-0.00012,0.00005
0.30000,-0.00026,0.00066
0.40000,-0.00050,0.00004
0.50000,-0.00074,0.00525
0.60000,-0.00096,-0.00310
0.70000,-0.00115,-0.00146
0.80000,-0.00133,-0.00475
0.90000,-0.00150,-0.00394
1.00000,-0.00167,-0.00222
1.10000,-0.00184,0.00193
1.20000,-0.00201,0.00062
1.30000,-0.00217,-0.00036
1.40000,-0.00234,0.00083
1.50000,-0.00251,0.00028
1.60000,-0.00267,-0.00157
1.70000,-0.00284,-0.00589
1.80000,-0.00301,-0.00446
1.90000,-0.00317,-0.00202
2.00000,-0.00334,0.00484
2.10000,-0.00351,-0.00084
2.20000,-0.00368,0.00073
2.30000,-0.00384,-0.00311
2.40000,-0.00401,0.00181
2.50000,-0.00417,-0.00002
2.60000,-0.00433,-0.00656
2.70000,-0.00450,-0.00378
2.80000,-0.00467,-0.00181
2.90000,-0.00484,0.00068
3.00000,-0.00501,-0.00054
3.10000,-0.00518,0.00287
3.20000,-0.00534,0.00199
3.30000,-0.00551,-0.00239
3.40000,-0.00568,-0.00207
3.50000,-0.00585,-0.00367
3.60000,-0.00602,-0.00197
3.70000,-0.00618,-0.00396
3.80000,-0.00635,-0.00068
3.90000,-0.00652,-0.00284
4.00000,-0.00668,-0.00262
4.10000,-0.00686,0.00037
4.20000,-0.00702,0.00313
4.30000,-0.00720,0.00042
4.40000,-0.00737,-0.00503
4.50000,-0.00752,-0.00470
4.60000,-0.00769,-0.00140
4.70000,-0.00786,0.00046
4.80000,-0.00803,-0.00180
4.90000,-0.00820,-0.00071
5.00000,-0.00836,-0.00040
5.10000,-0.00853,-0.00183
5.20000,-0.00870,-0.00396
5.30000,-0.00888,-0.00483
5.40000,-0.00904,-0.00769
5.50000,-0.00921,0.00064
5.60000,-0.00937,0.00166
5.70000,-0.00953,0.00039
5.80000,-0.00971,0.00273
5.90000,-0.00987,0.00270
6.00000,-0.01004,-0.00030
6.10000,-0.01020,-0.00008
6.20000,-0.01036,-0.00273
6.30000,-0.01054,-0.00680
6.40000,-0.01070,-0.00101
6.50000,-0.01087,0.00232
6.60000,-0.01104,-0.00201
6.70000,-0.01120,0.00124
6.80000,-0.01137,-0.00209
6.90000,-0.01153,0.00309
7.00000,-0.01170,-0.00057
7.10000,-0.01186,-0.00603
7.20000,-0.01203,-0.00676
7.30000,-0.01219,-0.00377
7.40000,-0.01236,0.00236
7.50000,-0.01253,-0.00270
7.60000,-0.01269,0.00428
7.70000,-0.01287,0.00146
7.80000,-0.01303,-0.00233
7.90000,-0.01320,-0.00440
8.00000,-0.01336,-0.00633
8.10000,-0.01353,-0.00472
8.20000,-0.01370,-0.00096
8.30000,-0.01386,0.00185
8.40000,-0.01403,-0.00292
8.50000,-0.01419,0.00234
8.60000,-0.01436,-0.00156
8.70000,-0.01452,-0.00034
8.80000,-0.01469,-0.00193
8.90000,-0.01486,-0.00200
9.00000,-0.01502,-0.00560
9.10000,-0.01519,-0.00300
9.20000,-0.01536,0.00159
9.30000,-0.01552,-0.00123
9.40000,-0.01569,-0.00121
9.50000,-0.01585,0.00045
9.60000,-0.01602,0.00144
9.70000,-0.01619,-0.00224
9.80000,-0.01635,-0.00301
9.90000,-0.01652,-0.00583
10.00000,-0.01668,0.00190
10.10000,-0.01685,0.00386
10.20000,-0.01702,0.00110
10.30000,-0.01719,0.00333
10.40000,-0.01735,0.00175
10.50000,-0.01752,-0.00115
10.60000,-0.01768,-0.00089
10.70000,-0.01785,-0.00459
10.80000,-0.01802,-0.00576
10.90000,-0.01818,-0.00169
11.00000,-0.01835,0.00261
11.10000,-0.01852,-0.00062
11.20000,-0.01868,0.00225
11.30000,-0.01886,0.00223
11.40000,-0.01902,0.00027
11.50000,-0.01919,0.00197
11.60000,-0.01936,-0.00358
11.70000,-0.01952,-0.00137
11.80000,-0.01969,0.00087
11.90000,-0.01985,0.00424
12.00000,-0.02002,0.00054
12.10000,-0.02018,0.00335
12.20000,-0.02035,-0.00032
12.30000,-0.02052,0.00143
12.40000,-0.02068,-0.00110
12.50000,-0.02086,-0.00073
12.60000,-0.02102,-0.00208
12.70000,-0.02119,-0.00130
12.80000,-0.02136,0.00310
12.90000,-0.02152,-0.00045
13.00000,-0.02169,0.00533
13.10000,-0.02185,0.00342
13.20000,-0.02202,0.00267
13.30000,-0.02218,0.00056
13.40000,-0.02235,-0.00575
13.50000,-0.02252,-0.00233
13.60000,-0.02269,-0.00101
13.70000,-0.02286,0.00117
13.80000,-0.02302,0.00340
13.90000,-0.02319,0.00233
14.00000,-0.02336,0.00194
14.10000,-0.02352,0.00485
14.20000,-0.02369,-0.00136
14.30000,-0.02386,-0.00361
14.40000,-0.02402,-0.00762
14.50000,-0.02419,0.00103
14.60000,-0.02436,0.00227
14.70000,-0.02452,-0.00096
14.80000,-0.02469,-0.00058
14.90000,-0.02486,0.00158
15.00000,-0.02503,0.00106
15.10000,-0.02520,-0.00057
15.20000,-0.02536,-0.00204
15.30000,-0.02553,-0.00342
15.40000,-0.02569,-0.00224
15.50000,-0.02585,0.00182
15.60000,-0.02602,0.00194
15.70000,-0.02619,0.00288
15.80000,-0.02636,0.00022
15.90000,-0.02652,0.00309
16.00000,-0.02669,-0.00049
16.10000,-0.02686,-0.00527
16.20000,-0.02703,-0.00129
16.30000,-0.02720,-0.00220
16.40000,-0.02736,0.00411
16.50000,-0.02752,0.00191
16.60000,-0.02769,0.00203
16.70000,-0.02785,0.00058
16.80000,-0.02802,0.00039
16.90000,-0.02819,0.00060
17.00000,-0.02836,-0.00472
17.10000,-0.02852,-0.00247
17.20000,-0.02869,0.00501
17.30000,-0.02886,0.00416
17.40000,-0.02902,0.00156
17.50000,-0.02919,0.00217
17.60000,-0.02936,0.00284
17.70000,-0.02953,-0.00151
17.80000,-0.02969,0.00226
17.90000,-0.02985,-0.00004
18.00000,-0.03002,-0.00039
18.10000,-0.03019,-0.00118
18.20000,-0.03036,0.00027
18.30000,-0.03052,0.00304
18.40000,-0.03069,0.00357
18.50000,-0.03086,0.00161
18.60000,-0.03102,0.00208
18.70000,-0.03119,0.00113
18.80000,-0.03136,-0.00589
18.90000,-0.03152,0.00090
19.00000,-0.03169,0.00224
19.10000,-0.03185,0.00530
19.20000,-0.03202,0.00209
19.30000,-0.03218,0.00233
19.40000,-0.03235,0.00096
19.50000,-0.03252,0.00337
19.60000,-0.03268,-0.00040
19.70000,-0.03285,-0.00264
19.80000,-0.03302,-0.00194
19.90000,-0.03319,0.00033
20.00000,-0.03335,0.00169
20.10000,-0.03352,0.00007
20.20000,-0.03368,-0.00111
20.30000,-0.03385,0.00161
20.40000,-0.03402,-0.00355
20.50000,-0.03418,-0.00173
20.60000,-0.03435,-0.00005
20.70000,-0.03451,-0.00368
20.80000,-0.03468,0.00062
20.90000,-0.03485,0.00262
21.00000,-0.03502,0.00438
21.10000,-0.03519,0.00123
21.20000,-0.03535,0.00145
21.30000,-0.03552,0.00099
21.40000,-0.03569,0.00313
21.50000,-0.03585,-0.00321
21.60000,-0.03602,-0.00682
21.70000,-0.03618,0.00595
21.80000,-0.03635,0.00372
21.90000,-0.03651,0.00230
22.00000,-0.03668,-0.00367
22.10000,-0.03685,-0.00266
22.20000,-0.03702,0.00340
22.30000,-0.03719,0.00046
22.40000,-0.03735,-0.00055
22.50000,-0.03752,-0.00193
22.60000,-0.03768,0.00160
22.70000,-0.03785,0.00263
22.80000,-0.03802,0.00029
22.90000,-0.03818,0.00091
23.00000,-0.03835,0.00008
23.10000,-0.03852,0.00264
23.20000,-0.03869,0.00184
23.30000,-0.03886,-0.00008
23.40000,-0.03902,-0.00249
23.50000,-0.03919,0.00112
23.60000,-0.03936,-0.00054
23.70000,-0.03952,0.00115
23.80000,-0.03969,0.00359
23.90000,-0.03985,0.00135
24.00000,-0.04002,0.00079
24.10000,-0.04018,0.00166
24.20000,-0.04035,-0.00495
24.30000,-0.04052,0.00059
24.40000,-0.04069,0.00211
24.50000,-0.04085,0.00447
24.60000,-0.04102,-0.00046
24.70000,-0.04119,0.00323
24.80000,-0.04135,0.00324
24.90000,-0.04152,0.00133
25.00000,-0.04169,-0.00030
25.10000,-0.04185,-0.00011
25.20000,-0.04202,-0.00209
25.30000,-0.04218,0.00353
25.40000,-0.04236,0.00327
25.50000,-0.04252,0.00090
25.60000,-0.04269,-0.00247
25.70000,-0.04285,0.00088
25.80000,-0.04302,0.00326
25.90000,-0.04319,-0.00019
26.00000,-0.04335,-0.00082
26.10000,-0.04352,-0.00097
26.20000,-0.04368,0.00129
26.30000,-0.04385,0.00537
26.40000,-0.04402,0.00064
26.50000,-0.04419,0.00192
26.60000,-0.04435,0.00225
26.70000,-0.04452,0.00388
26.80000,-0.04469,-0.00105
26.90000,-0.04486,-0.00102
27.00000,-0.04502,0.00156
27.10000,-0.04519,0.00498
27.20000,-0.04536,0.00122
27.30000,-0.04553,0.00240
27.40000,-0.04569,0.00087
27.50000,-0.04585,0.00217
27.60000,-0.04602,0.00127
27.70000,-0.04619,-0.00461
27.80000,-0.04636,-0.00094
27.90000,-0.04652,0.00233
28.00000,-0.04669,0.00410
28.10000,-0.04685,0.00430
28.20000,-0.04702,0.00350
28.30000,-0.04719,0.00507
28.40000,-0.04735,0.00316
28.50000,-0.04752,0.00052
28.60000,-0.04769,-0.00089
28.70000,-0.04785,-0.00058
28.80000,-0.04802,0.00192
28.90000,-0.04818,0.00668
29.00000,-0.04835,0.00332
29.10000,-0.04851,0.00428
29.20000,-0.04868,0.00404
29.30000,-0.04885,-0.00004
29.40000,-0.04902,0.00352
29.50000,-0.04919,0.00003
29.60000,-0.04935,-0.00002
29.70000,-0.04952,-0.00004
29.80000,-0.04969,0.00306
29.90000,-0.04985,0.00227
30.00000,-0.05002,0.00092
30.10000,-0.05018,0.00513
30.20000,-0.05035,0.00327
30.30000,-0.05051,0.00162
30.40000,-0.05069,-0.00108
30.50000,-0.05085,-0.00142
30.60000,-0.05102,0.00283
30.70000,-0.05119,0.00283
30.80000,-0.05135,0.00315
30.90000,-0.05152,0.00084
31.00000,-0.05169,0.00525
31.10000,-0.05185,0.00200
31.20000,-0.05201,0.00243
31.30000,-0.05218,-0.00232
31.40000,-0.05235,0.00010
31.50000,-0.05251,-0.00129
31.60000,-0.05269,0.00751
31.70000,-0.05285,0.00153
31.80000,-0.05302,0.00095
31.90000,-0.05319,0.00412
32.00000,-0.05335,0.00236
32.10000,-0.05352,0.00188
32.20000,-0.05369,-0.00154
32.30000,-0.05386,0.00255
32.40000,-0.05402,0.00334
32.50000,-0.05418,0.00236
32.60000,-0.05435,0.00156
32.70000,-0.05451,0.00072
32.80000,-0.05469,0.00339
32.90000,-0.05485,0.00579
33.00000,-0.05503,0.00184
33.10000,-0.05519,-0.00130
33.20000,-0.05536,0.00119
33.30000,-0.05552,-0.00086
33.40000,-0.05569,0.00137
33.50000,-0.05586,0.00321
33.60000,-0.05602,0.00148
33.70000,-0.05618,0.00012
33.80000,-0.05635,0.00378
33.90000,-0.05652,0.00145
34.00000,-0.05669,-0.00397
34.10000,-0.05685,-0.00105
34.20000,-0.05703,-0.00007
34.30000,-0.05719,0.00491
34.40000,-0.05735,0.00516
34.50000,-0.05753,0.00159
34.60000,-0.05768,0.00480
34.70000,-0.05786,0.00404
34.80000,-0.05802,0.00269
34.90000,-0.05819,-0.00086
35.00000,-0.05835,0.00139
35.10000,-0.05852,-0.00094
35.20000,-0.05869,0.00234
35.30000,-0.05886,0.00188
35.40000,-0.05903,0.00302
35.50000,-0.05919,0.00283
35.60000,-0.05936,0.00047
35.70000,-0.05954,0.00146
35.80000,-0.05969,0.00140
35.90000,-0.05987,-0.00235
36.00000,-0.06003,-0.00003
36.10000,-0.06018,0.00142
36.20000,-0.06036,0.00187
36.30000,-0.06052,0.00089
36.40000,-0.06069,0.00301
36.50000,-0.06086,0.00732
36.60000,-0.06103,-0.00062
36.70000,-0.06120,-0.00005
36.80000,-0.06136,0.00210
36.90000,-0.06153,-0.00150
37.00000,-0.06169,0.00116
37.10000,-0.06186,-0.00297
37.20000,-0.06202,0.00058
37.30000,-0.06219,0.00488
37.40000,-0.06236,0.00428
37.50000,-0.06252,0.00126
37.60000,-0.06270,-0.00033
37.70000,-0.06287,0.00121
37.80000,-0.06303,-0.00033
37.90000,-0.06320,0.00344
38.00000,-0.06335,0.00126
38.10000,-0.06353,0.00304
38.20000,-0.06369,0.00117
38.30000,-0.06386,0.00061
38.40000,-0.06401,0.00148
38.50000,-0.06418,-0.00003
38.60000,-0.06435,-0.00206
38.70000,-0.06452,0.00059
38.80000,-0.06469,0.00309
38.90000,-0.06485,0.00217
39.00000,-0.06503,0.00228
39.10000,-0.06519,-0.00015
39.20000,-0.06535,0.00394
39.30000,-0.06552,-0.00272
39.40000,-0.06568,-0.00204
39.50000,-0.06585,-0.00131
39.60000,-0.06602,-0.00261
39.70000,-0.06618,0.00247
39.80000,-0.06635,-0.00003
39.90000,-0.06651,0.00255
40.00000,-0.06669,0.00053
40.10000,-0.06685,0.00256
40.20000,-0.06702,-0.00113
40.30000,-0.06719,-0.00767
40.40000,-0.06735,0.00107
40.50000,-0.06752,-0.00254
40.60000,-0.06769,0.00241
40.70000,-0.06785,0.00023
40.80000,-0.06802,0.00576
40.90000,-0.06818,0.00223
41.00000,-0.06835,0.00246
41.10000,-0.06851,0.00342
41.20000,-0.06868,-0.00282
41.30000,-0.06885,-0.00227
41.40000,-0.06902,0.00031
41.50000,-0.06918,0.00410
41.60000,-0.06935,0.00055
41.70000,-0.06952,-0.00191
41.80000,-0.06968,-0.00191
41.90000,-0.06985,0.00419
42.00000,-0.07002,-0.00210
42.10000,-0.07018,-0.00233
42.20000,-0.07035,-0.00311
42.30000,-0.07051,0.00149
42.40000,-0.07069,0.00299
42.50000,-0.07085,0.00024
42.60000,-0.07102,-0.00183
42.70000,-0.07118,0.00200
42.80000,-0.07135,0.00317
42.90000,-0.07152,0.00302
43.00000,-0.07169,-0.00181
43.10000,-0.07185,-0.00444
43.20000,-0.07201,-0.00179
43.30000,-0.07219,0.00318
43.40000,-0.07235,0.00118
43.50000,-0.07251,0.00705
43.60000,-0.07268,-0.00305
43.70000,-0.07285,0.00451
43.80000,-0.07302,-0.00090
43.90000,-0.07319,-0.00414
44.00000,-0.07336,-0.00632
44.10000,-0.07352,-0.00024
44.20000,-0.07369,0.00492
44.30000,-0.07385,0.00262
44.40000,-0.07401,0.00355
44.50000,-0.07419,0.00204
44.60000,-0.07436,0.00264
44.70000,-0.07452,0.00083
44.80000,-0.07469,-0.00371
44.90000,-0.07485,-0.00624
45.00000,-0.07502,-0.00103
45.10000,-0.07519,0.00431
45.20000,-0.07536,0.00082
45.30000,-0.07552,0.00372
45.40000,-0.07569,0.00355
45.50000,-0.07585,0.00407
45.60000,-0.07602,0.00192
45.70000,-0.07619,-0.00212
45.80000,-0.07635,-0.00601
45.90000,-0.07651,-0.00050
46.00000,-0.07668,0.00062
46.10000,-0.07685,0.00152
46.20000,-0.07702,0.00382
46.30000,-0.07718,0.00188
46.40000,-0.07735,0.00420
46.50000,-0.07752,0.00146
46.60000,-0.07768,-0.00204
46.70000,-0.07786,-0.00217
46.80000,-0.07802,-0.00119
46.90000,-0.07819,0.00068
47.00000,-0.07836,0.00113
47.10000,-0.07852,0.00171
47.20000,-0.07869,0.00224
47.30000,-0.07885,0.00420
47.40000,-0.07903,-0.00216
47.50000,-0.07919,-0.00317
47.60000,-0.07936,0.00041
47.70000,-0.07952,-0.00222
47.80000,-0.07969,0.00366
47.90000,-0.07986,-0.00041
48.00000,-0.08001,0.00336
48.10000,-0.08019,0.00313
48.20000,-0.08035,0.00242
48.30000,-0.08051,0.00029
48.40000,-0.08069,-0.00126
48.50000,-0.08085,-0.00048
48.60000,-0.08102,0.00531
48.70000,-0.08119,0.00153
48.80000,-0.08136,0.00383
48.90000,-0.08152,0.00397
49.00000,-0.08168,0.00294
49.10000,-0.08185,0.00440
49.20000,-0.08201,-0.00096
49.30000,-0.08218,-0.00400
49.40000,-0.08235,-0.00463
49.50000,-0.08251,0.00421
49.60000,-0.08268,0.00414
49.70000,-0.08285,0.00092
49.80000,-0.08302,0.00320
49.90000,-0.08318,0.00330
50.00000,-0.08336,0.00165
50.10000,-0.08351,0.00232
50.20000,-0.08368,-0.00203
50.30000,-0.08385,-0.00357
50.40000,-0.08401,-0.00132
50.50000,-0.08418,0.00457
50.60000,-0.08435,0.00294
50.70000,-0.08452,0.00317
50.80000,-0.08468,0.00230
50.90000,-0.08484,0.00526
51.00000,-0.08502,0.00182
51.10000,-0.08519,-0.00355
51.20000,-0.08535,-0.01020
51.30000,-0.08552,0.00141
51.40000,-0.08568,0.00242
51.50000,-0.08585,0.00281
51.60000,-0.08601,0.00433
51.70000,-0.08618,0.00322
51.80000,-0.08634,0.00451
51.90000,-0.08651,0.00040
52.00000,-0.08668,-0.00308
52.10000,-0.08684,-0.00548
52.20000,-0.08702,-0.00093
52.30000,-0.08718,0.00073
52.40000,-0.08735,0.00052
52.50000,-0.08753,0.00159
52.60000,-0.08769,0.00097
52.70000,-0.08785,0.00212
52.80000,-0.08801,-0.00029
52.90000,-0.08819,-0.00236
53.00000,-0.08835,-0.00351
53.10000,-0.08850,-0.00021
53.20000,-0.08868,0.00285
53.30000,-0.08885,0.00164
53.40000,-0.08902,0.00314
53.50000,-0.08919,-0.00114
53.60000,-0.08936,0.00387
53.70000,-0.08952,0.00009
53.80000,-0.08968,-0.00235
53.90000,-0.08985,-0.00376
54.00000,-0.09001,-0.00070
54.10000,-0.09018,0.00060
54.20000,-0.09035,0.00340
54.30000,-0.09051,0.00404
54.40000,-0.09068,0.00937
54.50000,-0.09085,0.00191
54.60000,-0.09102,-0.00053
54.70000,-0.09119,-0.00354
54.80000,-0.09136,-0.00534
54.90000,-0.09152,0.00019
55.00000,-0.09168,0.00257
55.10000,-0.09186,0.00052
55.20000,-0.09201,0.00267
55.30000,-0.09217,0.00217
55.40000,-0.09234,0.00198
55.50000,-0.09251,0.00015
55.60000,-0.09268,-0.00418
55.70000,-0.09285,-0.00659
55.80000,-0.09302,0.00182
55.90000,-0.09318,0.00397
56.00000,-0.09335,0.00017
56.10000,-0.09352,0.00365
56.20000,-0.09369,0.00275
56.30000,-0.09386,0.00521
56.40000,-0.09401,-0.00020
56.50000,-0.09419,-0.00545
56.60000,-0.09435,-0.00398
56.70000,-0.09452,0.00288
56.80000,-0.09469,0.00553
56.90000,-0.09485,0.00151
57.00000,-0.09502,0.00399
57.10000,-0.09519,0.00326
57.20000,-0.09536,0.00053
57.30000,-0.09552,0.00095
57.40000,-0.09569,-0.00194
57.50000,-0.09585,-0.00329
57.60000,-0.09602,-0.00186
57.70000,-0.09619,0.00258
57.80000,-0.09635,0.00098
57.90000,-0.09652,0.00453
58.00000,-0.09669,0.00300
58.10000,-0.09686,0.00058
58.20000,-0.09703,-0.00126
58.30000,-0.09719,-0.00790
58.40000,-0.09737,-0.00579
58.50000,-0.09752,-0.00054
58.60000,-0.09769,0.00431
58.70000,-0.09785,0.00042
58.80000,-0.09802,0.00119
58.90000,-0.09819,0.00329
59.00000,-0.09835,0.00485
59.10000,-0.09852,0.00255
59.20000,-0.09869,-0.00435
59.30000,-0.09886,-0.00251
59.40000,-0.09903,0.00084
59.50000,-0.09919,0.00255
59.60000,-0.09936,0.00210
59.70000,-0.09952,0.00473
59.80000,-0.09969,0.00080
59.90000,-0.09985,0.00429
60.00000,-0.10001,0.00042
60.10000,-0.10018,-0.00700
60.20000,-0.10034,-0.00418
60.30000,-0.10051,0.00154
60.40000,-0.10068,0.00327
60.50000,-0.10085,0.00349
60.60000,-0.10102,0.00140
60.70000,-0.10118,0.00299
60.80000,-0.10135,0.00605
60.90000,-0.10151,-0.00071
61.00000,-0.10168,-0.00469
61.10000,-0.10185,-0.00340
61.20000,-0.10201,0.00231
61.30000,-0.10218,0.00422
61.40000,-0.10235,0.00142
61.50000,-0.10252,0.00199
61.60000,-0.10269,0.00177
61.70000,-0.10285,0.00392
61.80000,-0.10302,-0.00159
61.90000,-0.10319,-0.00296
62.00000,-0.10336,-0.00096
62.10000,-0.10352,0.00633
62.20000,-0.10369,0.00247
62.30000,-0.10385,0.00279
62.40000,-0.10402,0.00238
62.50000,-0.10418,0.00281
62.60000,-0.10435,0.00222
62.70000,-0.10452,0.00072
62.80000,-0.10468,-0.00439
62.90000,-0.10485,-0.00018
63.00000,-0.10502,0.00699
63.10000,-0.10518,0.00375
63.20000,-0.10535,0.00321
63.30000,-0.10552,0.00552
63.40000,-0.10569,0.00522
63.50000,-0.10585,0.00322
63.60000,-0.10601,0.00574
63.70000,-0.10618,-0.00063
63.80000,-0.10635,-0.00101
63.90000,-0.10652,0.00308
64.00000,-0.10669,0.00335
64.10000,-0.10686,0.00338
64.20000,-0.10703,0.00557
64.30000,-0.10719,0.00866
64.40000,-0.10736,0.00183
64.50000,-0.10752,-0.00001
64.60000,-0.10769,-0.00163
64.70000,-0.10786,-0.00214
64.80000,-0.10801,0.00621
64.90000,-0.10818,0.00502
65.00000,-0.10834,-0.00087
65.10000,-0.10852,0.00465
65.20000,-0.10868,0.00360
65.30000,-0.10885,0.00509
65.40000,-0.10902,-0.00093
65.50000,-0.10919,0.00528
65.60000,-0.10936,-0.00172
65.70000,-0.10952,0.00504
65.79999,-0.10969,0.00244
65.90000,-0.10985,0.00354
66.00000,-0.11002,0.00769
66.10000,-0.11018,-0.00001
66.20000,-0.11035,0.00432
66.29999,-0.11052,0.00023
66.40000,-0.11069,0.00178
66.50000,-0.11085,0.00174
66.60000,-0.11102,0.00412
66.70000,-0.11119,0.00530
66.79999,-0.11135,0.00414
66.90000,-0.11152,0.00751
67.00000,-0.11169,0.00377
67.10000,-0.11185,0.00702
67.20000,-0.11202,0.00099
67.29999,-0.11218,-0.00098
67.40000,-0.11235,0.00188
67.50000,-0.11252,0.00600
67.60000,-0.11268,0.00297
67.70000,-0.11286,0.00312
67.79999,-0.11302,0.00602
67.90000,-0.11318,0.00582
68.00000,-0.11336,0.00406
68.10000,-0.11351,-0.00058
68.20000,-0.11368,-0.00029
68.29999,-0.11385,0.00184
68.40000,-0.11401,0.00390
68.50000,-0.11418,0.00273
68.60000,-0.11434,0.00408
68.70000,-0.11452,0.00463
68.79999,-0.11468,0.00346
68.90000,-0.11485,0.00577
69.00000,-0.11501,0.00010
69.10000,-0.11518,-0.00023
69.20000,-0.11535,-0.00251
69.29999,-0.11551,0.00181
69.40000,-0.11569,0.00372
69.50000,-0.11585,0.00291
69.60000,-0.11602,0.00403
69.70000,-0.11618,0.00509
69.79999,-0.11634,0.00658
69.90000,-0.11651,-0.00256
70.00000,-0.11668,-0.00074
70.10000,-0.11685,0.00035
70.20000,-0.11702,0.00496
70.29999,-0.11718,0.00349
70.40000,-0.11735,0.00379
70.50000,-0.11751,0.00839
70.60000,-0.11768,0.00608
70.70000,-0.11784,0.00386
70.79999,-0.11800,0.00378
70.90000,-0.11817,-0.00253
71.00000,-0.11833,0.00350
71.10000,-0.11850,0.00623
71.20000,-0.11867,-0.00005
71.29999,-0.11885,0.00710
71.40000,-0.11901,0.00490
71.50000,-0.11918,0.00829
71.60000,-0.11935,0.00361
71.70000,-0.11951,-0.00321
71.79999,-0.11968,-0.00077
71.90000,-0.11984,0.00012
72.00000,-0.12001,0.00607
72.10000,-0.12018,0.00438
72.20000,-0.12034,0.00165
72.29999,-0.12051,0.00489
72.40000,-0.12067,0.00601
72.50000,-0.12085,0.00374
72.60000,-0.12101,-0.00077
72.70000,-0.12118,0.00044
72.79999,-0.12135,-0.00071
72.90000,-0.12151,0.00536
73.00000,-0.12168,0.00057
73.10000,-0.12184,0.00479
73.20000,-0.12201,0.00338
73.29999,-0.12217,0.00292
73.40000,-0.12234,0.00700
73.50000,-0.12251,0.00064
73.60000,-0.12268,0.00038
73.70000,-0.12285,0.00221
73.79999,-0.12301,0.00289
73.90000,-0.12318,0.00250
74.00000,-0.12335,0.00447
74.10000,-0.12351,0.00576
74.20000,-0.12368,0.00675
74.29999,-0.12384,0.00450
74.40000,-0.12401,-0.00117
74.50000,-0.12418,-0.00056
74.60000,-0.12434,0.00105
74.70000,-0.12451,0.00539
74.79999,-0.12468,0.00308
74.90000,-0.12485,0.00174
75.00000,-0.12502,0.00806
75.10000,-0.12518,0.00669
75.20000,-0.12535,0.00397
75.29999,-0.12552,-0.00054
75.40000,-0.12568,0.00558
75.50000,-0.12585,0.00126
75.60000,-0.12602,0.00430
75.70000,-0.12618,0.00276
75.79999,-0.12634,0.00538
75.90000,-0.12651,0.00598
76.00000,-0.12668,0.00526
76.10000,-0.12685,0.00328
76.20000,-0.12701,0.00067
76.29999,-0.12719,-0.00112
76.40000,-0.12735,0.00311
76.50000,-0.12751,0.00370
76.60000,-0.12768,0.00468
76.70000,-0.12784,0.00307
76.79999,-0.12801,0.00602
76.90000,-0.12818,0.00670
77.00000,-0.12834,0.00351
77.10000,-0.12851,-0.00068
77.20000,-0.12868,0.00128
77.29999,-0.12885,0.00494
77.40000,-0.12902,0.00377
77.50000,-0.12919,0.00147
77.60000,-0.12935,0.00157
77.70000,-0.12951,0.00330
77.79999,-0.12968,0.00746
77.90000,-0.12984,0.00704
78.00000,-0.13001,0.00058
78.10000,-0.13018,0.00390
78.20000,-0.13034,0.00288
78.29999,-0.13051,0.00394
78.40000,-0.13068,0.00141
78.50000,-0.13085,0.00619
78.60000,-0.13101,0.00890
78.70000,-0.13118,0.00526
78.79999,-0.13135,0.00344
78.90000,-0.13152,-0.00358
79.00000,-0.13168,-0.00269
79.10000,-0.13185,0.00565
79.20000,-0.13201,0.00526
79.29999,-0.13218,0.00746
79.40000,-0.13234,0.00543
79.50000,-0.13251,0.00662
79.60000,-0.13268,0.00644
79.70000,-0.13285,0.00700
79.79999,-0.13302,0.00309
79.90000,-0.13319,0.00084
80.00000,-0.13335,0.00493
80.10000,-0.13351,0.00720
80.20000,-0.13368,0.00183
80.29999,-0.13384,0.00479
80.40000,-0.13401,0.00754
80.50000,-0.13418,0.00531
80.60000,-0.13434,0.00321
80.70000,-0.13451,0.00070
80.79999,-0.13468,0.00466
80.90000,-0.13485,0.00257
81.00000,-0.13501,0.00311
81.10000,-0.13518,0.00386
81.20000,-0.13535,0.00795
81.29999,-0.13551,0.00705
81.40000,-0.13568,0.00732
81.50000,-0.13584,0.00477
81.60000,-0.13601,-0.00029
81.70000,-0.13618,0.00037
81.79999,-0.13634,0.00444
81.90000,-0.13651,0.00668
82.00000,-0.13668,0.00252
82.10000,-0.13685,0.01024
82.20000,-0.13702,0.00767
82.29999,-0.13719,0.00693
82.40000,-0.13735,0.00435
82.50000,-0.13751,0.00122
82.60000,-0.13768,0.00094
82.70000,-0.13785,0.00555
82.79999,-0.13801,0.00676
82.90000,-0.13817,0.00267
83.00000,-0.13834,0.00690
83.10000,-0.13851,0.00276
83.20000,-0.13867,0.00631
83.29999,-0.13885,0.00339
83.40000,-0.13901,-0.00098
83.50000,-0.13918,0.00188
83.60000,-0.13935,0.00540
83.70000,-0.13951,0.00657
83.79999,-0.13968,0.00180
83.90000,-0.13984,0.00704
84.00000,-0.14001,0.01037
84.10000,-0.14018,0.00814
84.20000,-0.14035,0.00169
84.29999,-0.14051,0.00229
84.40000,-0.14068,0.00475
84.50000,-0.14085,0.00434
84.60000,-0.14102,0.00701
84.70000,-0.14118,0.00287
84.79999,-0.14135,0.00789
84.90000,-0.14151,0.00745
85.00000,-0.14168,0.00939
85.10000,-0.14185,0.00301
85.20000,-0.14202,0.00013
85.29999,-0.14218,0.00706
85.40000,-0.14235,0.00330
85.50000,-0.14251,0.00473
85.60000,-0.14268,0.00432
85.70000,-0.14285,0.01065
85.79999,-0.14302,0.00769
85.90000,-0.14319,0.00415
86.00000,-0.14335,0.00049
86.10000,-0.14352,0.00275
86.20000,-0.14369,0.00051
86.29999,-0.14385,0.00221
86.40000,-0.14402,0.00869
86.50000,-0.14418,0.00161
86.60000,-0.14435,0.00673
86.70000,-0.14452,0.00652
86.79999,-0.14468,0.00715
86.90000,-0.14486,0.00376
87.00000,-0.14502,0.00363
87.10000,-0.14519,0.00114
87.20000,-0.14536,0.00404
87.29999,-0.14552,0.00641
87.40000,-0.14569,0.00104
87.50000,-0.14585,0.00882
87.60000,-0.14602,0.00938
87.70000,-0.14618,0.00812
87.79999,-0.14635,0.00380
87.90000,-0.14652,0.00120
88.00000,-0.14668,0.00588
88.10000,-0.14685,0.00266
88.20000,-0.14702,0.00716
88.29999,-0.14719,0.00094
88.40000,-0.14735,0.00868
88.50000,-0.14751,0.00916
88.60000,-0.14768,0.00462
88.70000,-0.14784,0.00481
88.79999,-0.14801,0.00176
88.90000,-0.14818,-0.00093
89.00000,-0.14834,0.00530
89.10000,-0.14851,0.00571
89.20000,-0.14868,0.00511
89.29999,-0.14885,0.00364
89.40000,-0.14902,0.00973
89.50000,-0.14919,0.00892
89.60000,-0.14935,0.00315
89.70000,-0.14951,0.00333
89.79999,-0.14968,0.00008
89.90000,-0.14984,0.00721
90.00000,-0.15001,0.00619
90.10000,-0.15017,0.00077
90.20000,-0.15034,0.00728
90.29999,-0.15051,0.00701
90.40000,-0.15067,0.00728
90.50000,-0.15084,0.00526
90.60000,-0.15101,0.00150
90.70000,-0.15118,0.00262
90.79999,-0.15134,0.00104
90.89999,-0.15151,0.00772
91.00000,-0.15168,-0.00080
91.10000,-0.15184,0.00575
91.20000,-0.15201,0.00937
91.29999,-0.15217,0.00582
91.39999,-0.15234,0.00372
91.50000,-0.15250,0.00002
91.60000,-0.15267,0.00228
91.70000,-0.15284,0.00408
91.79999,-0.15301,0.00828
91.89999,-0.15318,0.00317
92.00000,-0.15335,0.01020
92.10000,-0.15351,0.00702
92.20000,-0.15368,0.00592
92.29999,-0.15384,0.00343
92.39999,-0.15401,0.00124
92.50000,-0.15417,-0.00024
92.60000,-0.15434,0.00626
92.70000,-0.15451,0.00232
92.79999,-0.15468,0.00241
92.89999,-0.15485,0.00572
93.00000,-0.15501,0.00739
93.10000,-0.15518,0.00728
93.20000,-0.15535,0.00258
93.29999,-0.15551,0.00340
93.39999,-0.15568,-0.00299
93.50000,-0.15584,0.00603
93.60000,-0.15601,0.00721
93.70000,-0.15617,0.00419
93.79999,-0.15634,0.00914
93.89999,-0.15651,0.00794
94.00000,-0.15668,0.00665
94.10000,-0.15685,0.00028
94.20000,-0.15701,0.00031
94.29999,-0.15718,-0.00102
94.39999,-0.15734,0.00576
94.50000,-0.15751,0.00250
94.60000,-0.15768,0.00485
94.70000,-0.15784,0.00522
94.79999,-0.15801,0.00527
94.89999,-0.15817,0.00687
95.00000,-0.15834,0.00083
95.10000,-0.15851,-0.00089
95.20000,-0.15867,0.00023
95.29999,-0.15884,0.00661
95.39999,-0.15901,0.00576
95.50000,-0.15918,0.00064
95.60000,-0.15934,0.00568
95.70000,-0.15951,0.00561
95.79999,-0.15968,0.00521
95.89999,-0.15984,0.00304
96.00000,-0.16001,-0.00079
96.10000,-0.16017,-0.00247
96.20000,-0.16034,0.00681
96.29999,-0.16050,0.00163
96.39999,-0.16067,0.00283
96.50000,-0.16084,0.00428
96.60000,-0.16101,0.00417
96.70000,-0.16118,0.00625
96.79999,-0.16134,0.00329
96.89999,-0.16151,-0.00251
97.00000,-0.16168,0.00054
97.10000,-0.16184,0.00767
97.20000,-0.16201,0.00433
97.29999,-0.16217,0.00152
97.39999,-0.16234,0.00329
97.50000,-0.16251,0.00533
97.60000,-0.16268,0.00632
97.70000,-0.16285,0.00398
97.79999,-0.16301,0.00215
97.89999,-0.16318,-0.00052
98.00000,-0.16335,0.00630
98.10000,-0.16351,0.00222
98.20000,-0.16368,0.00225
98.29999,-0.16384,0.00761
98.39999,-0.16401,0.00152
98.50000,-0.16418,0.00420
98.60000,-0.16435,0.00247
98.70000,-0.16451,-0.00114
98.79999,-0.16468,0.00202
98.89999,-0.16485,0.00377
99.00000,-0.16501,0.00325
99.10000,-0.16519,0.00542
99.20000,-0.16535,0.00590
99.29999,-0.16551,0.00153
99.39999,-0.16568,0.00467
99.50000,-0.16584,0.00023
99.60000,-0.16601,-0.00166
99.70000,-0.16617,-0.00101
99.79999,-0.16634,0.00367
99.89999,-0.16650,0.00307
100.00000,-0.16668,0.00325
100.10000,-0.16684,0.00600
100.20000,-0.16701,0.00266
100.29999,-0.16717,0.00174
100.39999,-0.16734,-0.00257
100.50000,-0.16750,-0.00289
100.60000,-0.16768,0.00143
100.70000,-0.16784,0.00377
100.79999,-0.16801,0.00460
100.89999,-0.16817,0.00195
101.00000,-0.16834,0.00744
101.10000,-0.16851,0.00418
101.20000,-0.16867,0.00519
101.29999,-0.16884,-0.00117
101.39999,-0.16901,-0.00412
101.50000,-0.16918,-0.00302
101.60000,-0.16934,0.00249
101.70000,-0.16951,0.00183
101.79999,-0.16967,0.00430
101.89999,-0.16984,0.00187
102.00000,-0.17001,0.00318
102.10000,-0.17016,0.00365
102.20000,-0.17034,-0.00010
102.29999,-0.17050,-0.00094
102.39999,-0.17067,-0.00124
102.50000,-0.17084,0.00532
102.60000,-0.17100,0.00190
102.70000,-0.17118,0.00413
102.79999,-0.17134,0.00415
102.89999,-0.17151,0.00339
103.00000,-0.17167,-0.00105
103.10000,-0.17184,-0.00309
103.20000,-0.17201,-0.00307
103.29999,-0.17217,-0.00128
103.39999,-0.17234,0.00445
103.50000,-0.17250,0.00373
103.60000,-0.17268,0.00299
103.70000,-0.17284,0.00555
103.79999,-0.17301,0.00518
103.89999,-0.17318,0.00092
104.00000,-0.17334,-0.00171
104.10000,-0.17351,-0.00455
104.20000,-0.17367,0.00064
104.29999,-0.17384,0.00142
104.39999,-0.17401,0.00490
104.50000,-0.17417,0.00464
104.60000,-0.17434,0.00440
104.70000,-0.17450,0.00546
104.79999,-0.17468,-0.00032
104.89999,-0.17484,0.00215
105.00000,-0.17501,-0.00217
105.10000,-0.17518,-0.00670
105.20000,-0.17534,0.00245
105.29999,-0.17551,0.00467
105.39999,-0.17567,0.00496
105.50000,-0.17584,0.00312
105.60000,-0.17600,0.00583
105.70000,-0.17618,0.00116
105.79999,-0.17635,0.00268
105.89999,-0.17651,-0.00076
106.00000,-0.17668,-0.00283
106.10000,-0.17684,0.00401
106.20000,-0.17702,0.00166
106.29999,-0.17718,0.00344
106.39999,-0.17734,0.00624
106.50000,-0.17751,0.00287
106.60000,-0.17767,0.00468
106.70000,-0.17784,0.00415
106.79999,-0.17801,0.00031
106.89999,-0.17817,-0.00061
107.00000,-0.17834,0.00111
107.10000,-0.17850,0.00389
107.20000,-0.17868,0.00341
107.29999,-0.17884,0.00372
107.39999,-0.17901,0.00336
107.50000,-0.17918,0.00396
107.60000,-0.17935,0.00561
107.70000,-0.17951,-0.00097
107.79999,-0.17968,-0.00332
107.89999,-0.17984,0.00646
108.00000,-0.18001,0.00456
108.10000,-0.18017,0.00513
108.20000,-0.18035,0.00345
108.29999,-0.18051,0.00621
108.39999,-0.18068,0.00759
108.50000,-0.18085,-0.00051
108.60000,-0.18102,-0.00037
108.70000,-0.18119,0.00121
108.79999,-0.18134,0.00843
108.89999,-0.18151,0.00255
109.00000,-0.18168,0.00431
109.10000,-0.18185,0.00228
109.20000,-0.18201,0.00183
109.29999,-0.18218,0.00595
109.39999,-0.18234,0.00396
109.50000,-0.18251,-0.00255
109.60000,-0.18268,-0.00157
109.70000,-0.18285,0.00238
109.79999,-0.18301,0.00503
109.89999,-0.18318,0.00404
110.00000,-0.18334,0.00978
110.10000,-0.18351,0.00640
110.20000,-0.18368,0.00368
110.29999,-0.18384,-0.00009
110.39999,-0.18401,0.00061
110.50000,-0.18417,0.00117
110.60000,-0.18434,0.00599
110.70000,-0.18450,0.00137
110.79999,-0.18468,0.00228
110.89999,-0.18485,0.00390
111.00000,-0.18501,0.00575
111.10000,-0.18518,0.00419
111.20000,-0.18533,-0.00003
111.29999,-0.18551,-0.00121
111.39999,-0.18567,0.00004
111.50000,-0.18584,0.00746
111.60000,-0.18601,0.00249
111.70000,-0.18617,0.00318
111.79999,-0.18634,0.00358
111.89999,-0.18650,0.00380
112.00000,-0.18668,0.00163
112.10000,-0.18684,0.00105
112.20000,-0.18701,-0.00179
112.29999,-0.18718,0.00201
112.39999,-0.18734,0.00745
112.50000,-0.18751,0.00256
112.60000,-0.18767,0.00495
112.70000,-0.18784,0.00724
112.79999,-0.18801,0.00226
112.89999,-0.18817,0.00470
113.00000,-0.18834,0.00135
113.10000,-0.18851,-0.00283
113.20000,-0.18868,0.00096
113.29999,-0.18884,0.00661
113.39999,-0.18901,0.00154
113.50000,-0.18918,0.00171
113.60000,-0.18935,0.00312
113.70000,-0.18951,0.00382
113.79999,-0.18968,0.00033
113.89999,-0.18984,0.00345
114.00000,-0.19001,-0.00300
114.10000,-0.19017,0.00278
114.20000,-0.19034,0.00602
114.29999,-0.19050,0.00221
114.39999,-0.19068,0.00509
114.50000,-0.19084,0.00001
114.60000,-0.19101,0.00668
114.70000,-0.19118,0.00301
114.79999,-0.19134,0.00374
114.89999,-0.19151,-0.00254
115.00000,-0.19168,0.00058
115.10000,-0.19184,0.00375
115.20000,-0.19201,-0.00009
115.29999,-0.19217,0.00661
115.39999,-0.19234,0.00343
115.50000,-0.19250,-0.00064
115.60000,-0.19268,0.00306
115.70000,-0.19285,0.00068
115.79999,-0.19302,0.00131
115.89999,-0.19318,0.00359
116.00000,-0.19335,0.00272
116.10000,-0.19351,0.00062
116.20000,-0.19368,0.00596
116.29999,-0.19385,0.00602
116.39999,-0.19401,-0.00012
116.50000,-0.19418,0.00257
116.60000,-0.19434,0.00335
116.70000,-0.19451,-0.00221
116.79999,-0.19468,0.00126
116.89999,-0.19485,0.00824
117.00000,-0.19502,0.00282
117.10000,-0.19518,0.00407
117.20000,-0.19534,0.00771
117.29999,-0.19550,0.00735
117.39999,-0.19568,0.00270
117.50000,-0.19585,0.00255
117.60000,-0.19601,0.00236
117.70000,-0.19618,0.00154
117.79999,-0.19634,0.00570
117.89999,-0.19649,0.00212
118.00000,-0.19667,0.00336
118.10000,-0.19683,0.00249
118.20000,-0.19701,0.00544
118.29999,-0.19718,0.00200
118.39999,-0.19735,0.00155
118.50000,-0.19752,-0.00010
118.60000,-0.19768,0.00296
118.70000,-0.19784,0.00463
118.79999,-0.19801,0.00424
118.89999,-0.19819,0.00553
119.00000,-0.19834,0.00230
119.10000,-0.19851,0.00296
119.20000,-0.19868,0.00245
119.29999,-0.19885,0.00106
119.39999,-0.19902,0.00145
119.50000,-0.19918,0.00374
119.60000,-0.19935,0.00365
119.70000,-0.19951,0.00333
119.79999,-0.19968,0.00445
119.89999,-0.19984,0.00496
120.00000,-0.20001,0.00113
120.10000,-0.20017,0.00175
120.20000,-0.20033,0.00209
120.29999,-0.20050,0.00021
120.39999,-0.20067,0.00169
120.50000,-0.20084,0.00693
120.60000,-0.20100,0.00492
120.70000,-0.20117,0.00297
120.79999,-0.20135,0.00583
120.89999,-0.20151,0.00317
121.00000,-0.20167,0.00194
121.10000,-0.20184,0.00395
121.20000,-0.20200,0.00207
121.29999,-0.20217,0.00420
121.39999,-0.20233,0.00469
121.50000,-0.20251,0.00168
121.60000,-0.20267,0.00489
121.70000,-0.20284,0.00599
121.79999,-0.20301,0.00353
121.89999,-0.20317,0.00324
122.00000,-0.20335,0.00131
122.10000,-0.20350,0.00010
122.20000,-0.20367,0.00075
122.29999,-0.20384,0.00400
122.39999,-0.20401,0.00290
122.50000,-0.20416,-0.00196
122.60000,-0.20433,0.00314
122.70000,-0.20450,0.00398
122.79999,-0.20467,0.00046
122.89999,-0.20484,0.00086
123.00000,-0.20501,-0.00026
123.10000,-0.20517,0.00441
123.20000,-0.20534,0.00661
123.29999,-0.20551,0.00237
123.39999,-0.20567,0.00207
123.50000,-0.20584,0.00585
123.60000,-0.20600,0.00126
123.70000,-0.20617,0.00327
123.79999,-0.20634,0.00244
123.89999,-0.20650,0.00121
124.00000,-0.20668,0.00132
124.10000,-0.20684,0.00291
124.20000,-0.20701,-0.00037
124.29999,-0.20717,0.00382
124.39999,-0.20735,0.00468
124.50000,-0.20751,0.00465
124.60000,-0.20768,0.00123
124.70000,-0.20784,0.00196
124.79999,-0.20801,0.00238
124.89999,-0.20817,0.00370
125.00000,-0.20834,0.00044
125.10000,-0.20850,0.00226
125.20000,-0.20868,0.00454
125.29999,-0.20885,0.00815
125.39999,-0.20902,0.00333
125.50000,-0.20918,0.00385
125.60000,-0.20935,0.00574
125.70000,-0.20951,0.00429
125.79999,-0.20968,0.00879
125.89999,-0.20984,0.00665
126.00000,-0.21002,0.00196
126.10000,-0.21017,0.00063
126.20000,-0.21034,0.00560
126.29999,-0.21051,0.00554
126.39999,-0.21068,0.00124
126.50000,-0.21084,-0.00009
126.60000,-0.21102,0.00736
126.70000,-0.21117,0.00147
126.79999,-0.21135,0.00365
126.89999,-0.21151,0.00329
127.00000,-0.21167,0.00213
127.10000,-0.21184,0.00677
127.20000,-0.21200,0.00588
127.29999,-0.21217,0.00105
127.39999,-0.21234,0.00587
127.50000,-0.21251,-0.00256
127.60000,-0.21267,0.00572
127.70000,-0.21285,0.00523
127.79999,-0.21301,0.00167
127.89999,-0.21318,0.00062
128.00000,-0.21335,0.00004
128.09999,-0.21352,0.00200
128.20000,-0.21367,0.00198
128.30000,-0.21384,-0.00194
128.39999,-0.21401,-0.00329
128.50000,-0.21418,-0.01596
128.59999,-0.21435,-0.03095
128.70000,-0.21451,-0.05514
128.80000,-0.21467,-0.08207
128.89999,-0.21484,-0.11121
129.00000,-0.21502,-0.14323
129.09999,-0.21518,-0.16779
129.20000,-0.21535,-0.20751
129.30000,-0.21551,-0.24017
129.39999,-0.21567,-0.27947
129.50000,-0.21584,-0.31046
129.59999,-0.21600,-0.35706
129.70000,-0.21617,-0.40647
129.80000,-0.21634,-0.44953
129.89999,-0.21650,-0.50003
130.00000,-0.21667,-0.54278
130.09999,-0.21684,-0.59079
130.20000,-0.21701,-0.63554
130.30000,-0.21717,-0.66382
130.39999,-0.21735,-0.70652
130.50000,-0.21751,-0.73949
130.59999,-0.21767,-0.78231
130.70000,-0.21783,-0.82049
130.80000,-0.21800,-0.85685
130.89999,-0.21817,-0.90148
131.00000,-0.21833,-0.94918
131.09998,-0.21850,-0.99885
131.20000,-0.21867,-1.04321
131.30000,-0.21884,-1.08603
131.40000,-0.21901,-1.12221
131.50000,-0.21917,-1.14971
131.59998,-0.21934,-1.18138
131.70000,-0.21950,-1.21309
131.80000,-0.21968,-1.25262
131.80180,-0.21969,-1.25319
131.90000,-0.21984,-1.29654
132.00000,-0.22001,-1.33771
132.09998,-0.22017,-1.38969
132.20000,-0.22034,-1.45188
132.30000,-0.22051,-1.53969
132.40000,-0.22067,-1.61934
132.50000,-0.22084,-1.70828
132.59998,-0.22101,-1.79309
132.70000,-0.22118,-1.86674
132.80000,-0.22135,-1.95746
132.90000,-0.22150,-2.02556
133.00000,-0.22167,-2.11875
133.09998,-0.22184,-2.21637
133.20000,-0.22200,-2.31712
133.30000,-0.22216,-2.42350
133.31880,-0.22219,-2.42934
133.40000,-0.22234,-2.53406
133.50000,-0.22250,-2.66599
133.59998,-0.22268,-2.80099
133.70000,-0.22285,-2.92309
133.80000,-0.22302,-3.04974
133.90000,-0.22318,-3.15532
134.00000,-0.22334,-3.27561
134.09998,-0.22350,-3.39647
134.20000,-0.22369,-3.52878
134.30000,-0.22385,-3.64887
134.37880,-0.22397,-3.73768
134.40000,-0.22401,-3.77701
134.50000,-0.22418,-3.91345
134.59998,-0.22434,-4.06174
134.70000,-0.22453,-4.23060
134.80000,-0.22467,-4.36145
134.90000,-0.22486,-4.51696
135.00000,-0.22502,-4.65083
135.09998,-0.22518,-4.76077
135.20000,-0.22535,-4.89978
135.26280,-0.22545,-4.95225
135.30000,-0.22551,-5.01527
135.40000,-0.22568,-5.13928
135.50000,-0.22584,-5.27788
135.59998,-0.22601,-5.41459
135.70000,-0.22618,-5.56871
135.80000,-0.22634,-5.71824
135.90000,-0.22650,-5.87844
136.00000,-0.22668,-6.04531
136.07780,-0.22681,-6.15244
136.09998,-0.22685,-6.18825
136.20000,-0.22701,-6.31999
136.30000,-0.22718,-6.45443
136.40000,-0.22736,-6.61218
136.50000,-0.22751,-6.73593
136.59998,-0.22769,-6.87834
136.70000,-0.22783,-6.99450
136.80000,-0.22800,-7.15045
136.90000,-0.22817,-7.32379
136.97280,-0.22830,-7.44574
137.00000,-0.22835,-7.48976
137.09998,-0.22852,-7.68582
137.20000,-0.22868,-7.85311
137.30000,-0.22885,-8.02586
137.40000,-0.22901,-8.17359
137.50000,-0.22917,-8.30265
137.59998,-0.22934,-8.44374
137.70000,-0.22951,-8.60027
137.80000,-0.22968,-8.72821
137.80080,-0.22968,-8.72940
137.90000,-0.22982,-8.86542
138.00000,-0.23001,-9.03520
138.09998,-0.23018,-9.20391
138.20000,-0.23035,-9.38208
138.30000,-0.23051,-9.53263
138.40000,-0.23067,-9.70839
138.50000,-0.23084,-9.85650
138.52980,-0.23089,-9.91134
138.59998,-0.23102,-10.03487
138.70000,-0.23118,-10.17446
138.80000,-0.23135,-10.31551
138.90000,-0.23151,-10.47136
139.00000,-0.23168,-10.59901
139.09998,-0.23184,-10.76301
139.20000,-0.23201,-10.89741
139.30000,-0.23217,-11.06708
139.33880,-0.23223,-11.12538
139.40000,-0.23234,-11.25416
139.50000,-0.23250,-11.43852
139.59998,-0.23267,-11.64353
139.70000,-0.23285,-11.83137
139.80000,-0.23300,-11.99362
139.90000,-0.23316,-12.13560
140.00000,-0.23335,-12.32198
140.06680,-0.23346,-12.42755
140.09998,-0.23351,-12.47611
140.20000,-0.23367,-12.63487
140.30000,-0.23384,-12.80888
140.40000,-0.23400,-12.98639
140.50000,-0.23416,-13.16138
140.59998,-0.23433,-13.36512
140.70000,-0.23451,-13.57785
140.78180,-0.23464,-13.72674
140.80000,-0.23467,-13.75933
140.90000,-0.23484,-13.94332
141.00000,-0.23501,-14.12453
141.09998,-0.23516,-14.27685
141.20000,-0.23533,-14.43916
141.30000,-0.23550,-14.61479
141.40000,-0.23568,-14.79417
141.48180,-0.23580,-14.92488
141.50000,-0.23583,-14.96034
141.59998,-0.23599,-15.14284
141.70000,-0.23617,-15.34542
141.80000,-0.23632,-15.56630
141.90000,-0.23651,-15.80232
142.00000,-0.23667,-16.04668
142.04180,-0.23674,-16.11407
142.09998,-0.23684,-16.24312
142.20000,-0.23700,-16.44875
142.30000,-0.23717,-16.63064
142.40000,-0.23734,-16.79906
142.50000,-0.23751,-17.00387
142.59998,-0.23768,-17.18358
142.70000,-0.23784,-17.39352
142.71380,-0.23786,-17.39987
142.80000,-0.23800,-17.57800
142.90000,-0.23816,-17.80105
143.00000,-0.23833,-18.04389
143.09998,-0.23850,-18.28362
143.20000,-0.23867,-18.53536
143.27280,-0.23879,-18.68192
143.30000,-0.23883,-18.73886
143.40000,-0.23900,-18.96915
143.50000,-0.23917,-19.17361
143.59998,-0.23934,-19.38440
143.70000,-0.23950,-19.58181
143.80000,-0.23967,-19.77610
143.90000,-0.23984,-19.98835
143.90280,-0.23985,-19.99286
144.00000,-0.24000,-20.19453
144.09998,-0.24017,-20.41898
144.20000,-0.24033,-20.65335
144.30000,-0.24050,-20.91081
144.40000,-0.24067,-21.17485
144.40680,-0.24068,-21.18468
144.50000,-0.24084,-21.41106
144.59998,-0.24100,-21.62117
144.70000,-0.24118,-21.85045
144.80000,-0.24134,-22.01061
144.90000,-0.24150,-22.24862
144.96980,-0.24162,-22.36473
145.00000,-0.24167,-22.43589
145.09998,-0.24183,-22.65610
145.20000,-0.24200,-22.87791
145.30000,-0.24217,-23.12269
145.40000,-0.24234,-23.38445
145.50000,-0.24251,-23.61948
145.50080,-0.24251,-23.62192
145.59998,-0.24267,-23.89812
145.70000,-0.24284,-24.10620
145.80000,-0.24301,-24.34957
145.90000,-0.24317,-24.55348
146.00000,-0.24334,-24.75874
146.06180,-0.24344,-24.89288
146.09998,-0.24350,-24.98274
146.20000,-0.24368,-25.19604
146.30000,-0.24384,-25.42628
146.40000,-0.24400,-25.63184
146.50000,-0.24416,-25.84867
146.59998,-0.24433,-26.10606
146.62780,-0.24438,-26.17876
146.70000,-0.24450,-26.38335
146.80000,-0.24466,-26.64564
146.90000,-0.24483,-26.87546
147.00000,-0.24501,-27.16872
147.09998,-0.24517,-27.37250
147.14180,-0.24525,-27.46679
147.20000,-0.24534,-27.58272
147.30000,-0.24550,-27.79302
147.40000,-0.24567,-28.00398
147.50000,-0.24583,-28.21633
147.59998,-0.24600,-28.45431
147.67080,-0.24612,-28.60941
147.70000,-0.24617,-28.68629
147.80000,-0.24633,-28.95260
147.90000,-0.24650,-29.19612
148.00000,-0.24666,-29.46357
148.09998,-0.24684,-29.71149
148.17580,-0.24696,-29.87794
148.20000,-0.24700,-29.93412
148.30000,-0.24717,-30.15758
148.40000,-0.24733,-30.34490
148.50000,-0.24750,-30.58318
148.59998,-0.24767,-30.76721
148.70000,-0.24783,-30.99554
148.76380,-0.24794,-31.11034
148.80000,-0.24800,-31.20660
148.90000,-0.24816,-31.42841
149.00000,-0.24832,-31.68962
149.09998,-0.24849,-31.94347
149.20000,-0.24866,-32.23057
149.27080,-0.24878,-32.38851
149.30000,-0.24884,-32.45166
149.40000,-0.24900,-32.67264
149.50000,-0.24917,-32.88255
149.59998,-0.24933,-33.08232
149.70000,-0.24950,-33.29803
149.80000,-0.24967,-33.50870
149.89480,-0.24982,-33.70883
149.90000,-0.24983,-33.72328
150.00000,-0.25000,-33.95289
150.09998,-0.25016,-34.18986
150.20000,-0.25033,-34.44386
150.30000,-0.25050,-34.71448
150.40000,-0.25066,-34.95507
150.40080,-0.25066,-34.95755
150.50000,-0.25083,-35.19848
150.59998,-0.25100,-35.42006
150.70000,-0.25117,-35.64940
150.80000,-0.25133,-35.85773
150.90000,-0.25150,-36.07253
150.93480,-0.25156,-36.15280
151.00000,-0.25168,-36.30442
151.09998,-0.25184,-36.50049
151.20000,-0.25200,-36.73280
151.30000,-0.25216,-36.95804
151.40000,-0.25233,-37.23246
151.44480,-0.25241,-37.34490
151.50000,-0.25250,-37.49461
151.59998,-0.25268,-37.78334
151.70000,-0.25284,-38.03191
151.80000,-0.25300,-38.24648
151.90000,-0.25318,-38.48743
151.97180,-0.25330,-38.60730
152.00000,-0.25334,-38.67006
152.09998,-0.25350,-38.89900
152.20000,-0.25368,-39.10488
152.30000,-0.25384,-39.33360
152.40000,-0.25400,-39.56855
152.50000,-0.25417,-39.80850
152.53180,-0.25422,-39.89286
152.59998,-0.25433,-40.08821
152.70000,-0.25451,-40.35380
152.80000,-0.25467,-40.62886
152.90000,-0.25485,-40.87721
153.00000,-0.25501,-41.11933
153.05880,-0.25511,-41.23397
153.09998,-0.25518,-41.32990
153.20000,-0.25535,-41.55743
153.30000,-0.25550,-41.76672
153.40000,-0.25568,-41.99450
153.50000,-0.25584,-42.20879
153.59998,-0.25601,-42.43396
153.60880,-0.25602,-42.44801
153.70000,-0.25617,-42.67767
153.80000,-0.25634,-42.95484
153.90000,-0.25650,-43.24710
154.00000,-0.25667,-43.51318
154.05680,-0.25676,-43.66869
154.09998,-0.25684,-43.80215
154.20000,-0.25700,-44.01718
154.30000,-0.25718,-44.25941
154.40000,-0.25734,-44.46934
154.50000,-0.25751,-44.69920
154.56478,-0.25762,-44.82906
154.59998,-0.25767,-44.92064
154.70000,-0.25783,-45.13441
154.80000,-0.25800,-45.39900
154.90000,-0.25816,-45.62887
155.00000,-0.25833,-45.91749
155.06680,-0.25844,-46.08718
155.09998,-0.25850,-46.20528
155.20000,-0.25866,-46.47949
155.30000,-0.25884,-46.74902
155.40000,-0.25900,-46.98202
155.50000,-0.25917,-47.22627
155.59680,-0.25933,-47.43663
155.59998,-0.25934,-47.44475
155.70000,-0.25950,-47.67944
155.80000,-0.25967,-47.89775
155.90000,-0.25983,-48.12244
156.00000,-0.26000,-48.36939
156.09998,-0.26016,-48.61214
156.13180,-0.26022,-48.71325
156.20000,-0.26033,-48.88664
156.30000,-0.26050,-49.18021
156.40000,-0.26066,-49.46894
156.50000,-0.26084,-49.74056
156.59080,-0.26099,-49.95846
156.59998,-0.26100,-49.98052
156.70000,-0.26118,-50.20772
156.80000,-0.26134,-50.43571
156.90000,-0.26150,-50.64524
157.00000,-0.26167,-50.88214
157.09998,-0.26183,-51.09740
157.12180,-0.26187,-51.14567
157.20000,-0.26200,-51.34575
157.30000,-0.26217,-51.59967
157.40000,-0.26233,-51.87222
157.50000,-0.26250,-52.17795
157.57180,-0.26262,-52.36014
157.59998,-0.26267,-52.43247
157.70000,-0.26284,-52.71016
157.80000,-0.26300,-52.93164
157.90000,-0.26318,-53.18570
158.00000,-0.26334,-53.40840
158.07980,-0.26347,-53.56886
158.09998,-0.26350,-53.62025
158.20000,-0.26367,-53.86141
158.30000,-0.26384,-54.06500
158.40000,-0.26400,-54.32227
158.50000,-0.26417,-54.56069
158.59998,-0.26434,-54.84030
158.60880,-0.26435,-54.85353
158.70000,-0.26450,-55.12981
158.80000,-0.26467,-55.42067
158.90000,-0.26484,-55.68939
159.00000,-0.26501,-55.91458
159.09998,-0.26518,-56.14233
159.13980,-0.26524,-56.22452
159.20000,-0.26534,-56.35082
159.30000,-0.26550,-56.57578
159.40000,-0.26567,-56.80690
159.50000,-0.26583,-57.03333
159.59998,-0.26600,-57.26689
159.66480,-0.26611,-57.43773
159.70000,-0.26617,-57.54120
159.80000,-0.26633,-57.80390
159.90000,-0.26650,-58.07638
160.00000,-0.26666,-58.34665
160.09998,-0.26684,-58.60297
160.10780,-0.26685,-58.61070
160.20000,-0.26700,-58.85352
160.30000,-0.26717,-59.06404
160.40000,-0.26734,-59.29918
160.50000,-0.26750,-59.49607
160.59998,-0.26767,-59.73694
160.64180,-0.26774,-59.82253
160.70000,-0.26783,-59.95385
160.80000,-0.26801,-60.19144
160.90000,-0.26816,-60.42821
161.00000,-0.26833,-60.67988
161.09998,-0.26850,-60.98968
161.14580,-0.26858,-61.10532
161.20000,-0.26867,-61.24978
161.30000,-0.26884,-61.53343
161.40000,-0.26900,-61.75098
161.50000,-0.26918,-61.98074
161.59998,-0.26933,-62.18659
161.70000,-0.26950,-62.39894
161.70480,-0.26951,-62.40480
161.80000,-0.26967,-62.62114
161.90000,-0.26983,-62.82644
162.00000,-0.27000,-63.07834
162.09998,-0.27016,-63.34142
162.20000,-0.27033,-63.60560
162.23880,-0.27040,-63.69644
162.30000,-0.27050,-63.87373
162.40000,-0.27067,-64.14191
162.50000,-0.27084,-64.38497
162.59998,-0.27100,-64.61500
162.70000,-0.27117,-64.81608
162.75580,-0.27127,-64.93616
162.80000,-0.27134,-65.02435
162.90000,-0.27150,-65.22629
163.00000,-0.27167,-65.43425
163.09998,-0.27184,-65.62879
163.20000,-0.27200,-65.83553
163.30000,-0.27217,-66.06738
163.34180,-0.27224,-66.14812
163.40000,-0.27234,-66.27999
163.50000,-0.27250,-66.53181
163.59998,-0.27267,-66.72102
163.70000,-0.27284,-66.80833
163.70780,-0.27286,-66.74044
163.70880,-0.27287,-66.59688
163.70980,-0.27289,-66.29503
163.71080,-0.27291,-65.80753
163.71180,-0.27294,-65.12876
163.71280,-0.27296,-64.26793
163.71380,-0.27297,-63.24123
163.71480,-0.27298,-62.06531
163.71580,-0.27299,-60.75792
163.71680,-0.27299,-59.33575
163.71778,-0.27300,-57.81335
163.71880,-0.27300,-56.20559
163.71980,-0.27300,-54.52623
163.72080,-0.27299,-52.78790
163.72180,-0.27299,-51.00361
163.72280,-0.27299,-49.18540
163.72380,-0.27299,-47.34506
163.72480,-0.27299,-45.49434
163.72580,-0.27299,-43.64176
163.72680,-0.27300,-41.79274
163.72780,-0.27300,-39.95131
163.72880,-0.27301,-38.12073
163.72980,-0.27302,-36.30511
163.73080,-0.27303,-34.50953
163.73180,-0.27304,-32.73880
163.73280,-0.27305,-30.99773
163.73380,-0.27306,-29.29063
163.73480,-0.27308,-27.62078
163.73580,-0.27309,-25.99150
163.73680,-0.27311,-24.40597
163.73780,-0.27312,-22.86694
163.73880,-0.27314,-21.37709
163.73980,-0.27316,-19.93824
163.74080,-0.27317,-18.55136
163.74180,-0.27319,-17.21730
163.74280,-0.27321,-15.93678
163.74380,-0.27323,-14.71043
163.74480,-0.27325,-13.53880
163.74578,-0.27327,-12.42143
163.74680,-0.27329,-11.35712
163.74780,-0.27331,-10.34445
163.74880,-0.27333,-9.38209
163.74980,-0.27335,-8.46910
163.75080,-0.27337,-7.60495
163.75180,-0.27338,-6.78897
163.75280,-0.27340,-6.02025
163.75380,-0.27342,-5.29766
163.75480,-0.27343,-4.61987
163.75580,-0.27345,-3.98572
163.75680,-0.27347,-3.39426
163.75780,-0.27348,-2.84465
163.76680,-0.27360,0.41469
163.80000,-0.27370,0.47878
163.90000,-0.27362,-0.96012
164.00000,-0.27360,-0.89930
164.09998,-0.27359,-0.84012
164.20000,-0.27361,-0.83242
164.30000,-0.27366,-0.82990
164.40000,-0.27380,-0.86372
164.50000,-0.27404,-0.93761
164.59998,-0.27425,-1.01539
164.70000,-0.27444,-1.11264
164.80000,-0.27463,-1.21765
164.90000,-0.27482,-1.33993
165.00000,-0.27499,-1.46137
165.09998,-0.27517,-1.59636
165.20000,-0.27533,-1.73163
165.30000,-0.27550,-1.85704
165.40000,-0.27567,-1.99662
165.50000,-0.27583,-2.13542
165.59998,-0.27600,-2.27919
165.70000,-0.27616,-2.43512
165.73580,-0.27622,-2.44681
165.80000,-0.27633,-2.58466
165.90000,-0.27650,-2.75302
166.00000,-0.27667,-2.91937
166.09998,-0.27684,-3.06245
166.20000,-0.27700,-3.19669
166.30000,-0.27717,-3.31204
166.40000,-0.27734,-3.43881
166.50000,-0.27750,-3.55358
166.59998,-0.27767,-3.69125
166.60680,-0.27768,-3.69154
166.70000,-0.27783,-3.80261
166.80000,-0.27800,-3.91223
166.90000,-0.27816,-4.09363
167.00000,-0.27833,-4.23196
167.09998,-0.27850,-4.41131
167.20000,-0.27867,-4.60439
167.30000,-0.27884,-4.69463
167.39580,-0.27900,-4.73332
167.40000,-0.27900,-4.77201
167.50000,-0.27918,-4.85165
167.59998,-0.27934,-4.98091
167.70000,-0.27951,-5.10892
167.80000,-0.27967,-5.28312
167.90000,-0.27984,-5.43199
