Text Inputs : Specimen label,"2.125"
General : Start Date,1/28/2011 12:57 PM
General : End Date,1/28/2011 12:59 PM
Maximum Compressive load : Maximum Compressive load,7.39359,kgf
Maximum Compressive load : Compressive stress at Maximum Compressive load,0.77542,MPa

Time,Extension,Load
(sec),(mm),(N)
0.00000,-0.00007,-0.01565
0.00180,-0.00007,-0.01568
0.10000,-0.00007,-0.00244
0.20000,-0.00013,-0.00474
0.30000,-0.00028,-0.00559
0.40000,-0.00052,0.00037
0.50000,-0.00075,0.00090
0.60000,-0.00097,-0.00221
0.70000,-0.00115,-0.00552
0.80000,-0.00133,-0.00017
0.90000,-0.00150,-0.00254
1.00000,-0.00169,-0.00310
1.10000,-0.00185,-0.00721
1.20000,-0.00201,-0.00397
1.30000,-0.00218,-0.00190
1.40000,-0.00234,-0.00283
1.50000,-0.00251,-0.00517
1.60000,-0.00267,0.00057
1.70000,-0.00284,-0.00052
1.80000,-0.00300,-0.00394
1.90000,-0.00318,-0.00142
2.00000,-0.00335,-0.00740
2.10000,-0.00351,-0.00496
2.20000,-0.00368,-0.00006
2.30000,-0.00384,-0.00323
2.40000,-0.00401,-0.00156
2.50000,-0.00417,-0.00253
2.60000,-0.00434,-0.00231
2.70000,-0.00450,-0.00154
2.80000,-0.00467,-0.00295
2.90000,-0.00485,-0.00590
3.00000,-0.00501,-0.00732
3.10000,-0.00517,-0.00296
3.20000,-0.00535,-0.00343
3.30000,-0.00551,-0.00489
3.40000,-0.00568,-0.00104
3.50000,-0.00585,-0.00048
3.60000,-0.00602,-0.00212
3.70000,-0.00619,-0.00332
3.80000,-0.00635,-0.00900
3.90000,-0.00652,-0.00266
4.00000,-0.00669,-0.00314
4.10000,-0.00686,-0.00191
4.20000,-0.00703,-0.00153
4.30000,-0.00720,-0.00206
4.40000,-0.00736,-0.00313
4.50000,-0.00752,-0.00230
4.60000,-0.00770,-0.00426
4.70000,-0.00786,-0.00869
4.80000,-0.00803,-0.00256
4.90000,-0.00819,-0.00087
5.00000,-0.00836,0.00000
5.10000,-0.00853,-0.00295
5.20000,-0.00870,-0.00361
5.30000,-0.00887,-0.00051
5.40000,-0.00905,-0.00531
5.50000,-0.00921,-0.00264
5.60000,-0.00938,-0.00561
5.70000,-0.00953,-0.00361
5.80000,-0.00970,-0.00030
5.90000,-0.00987,-0.00477
6.00000,-0.01004,0.00044
6.10000,-0.01020,-0.00184
6.20000,-0.01037,0.00039
6.30000,-0.01053,0.00009
6.40000,-0.01070,-0.00531
6.50000,-0.01087,-0.00735
6.60000,-0.01104,-0.00367
6.70000,-0.01120,-0.00229
6.80000,-0.01137,-0.00126
6.90000,-0.01152,-0.00264
7.00000,-0.01170,-0.00460
7.10000,-0.01186,-0.00111
7.20000,-0.01203,-0.00303
7.30000,-0.01219,-0.00442
7.40000,-0.01236,-0.00765
7.50000,-0.01253,-0.00684
7.60000,-0.01270,-0.00289
7.70000,-0.01287,-0.00172
7.80000,-0.01303,-0.00216
7.90000,-0.01320,-0.00097
8.00000,-0.01336,0.00167
8.10000,-0.01353,-0.00272
8.20000,-0.01370,-0.00744
8.30000,-0.01386,-0.00716
8.40000,-0.01403,-0.00331
8.50000,-0.01419,-0.00304
8.60000,-0.01435,-0.00124
8.70000,-0.01452,-0.00308
8.80000,-0.01469,-0.00273
8.90000,-0.01486,-0.00091
9.00000,-0.01502,0.00078
9.10000,-0.01519,-0.00463
9.20000,-0.01536,-0.00760
9.30000,-0.01552,0.00015
9.40000,-0.01569,-0.00429
9.50000,-0.01585,-0.00066
9.60000,-0.01602,-0.00270
9.70000,-0.01618,-0.00072
9.80000,-0.01635,-0.00018
9.90000,-0.01652,0.00020
10.00000,-0.01668,-0.00457
10.10000,-0.01686,-0.01008
10.20000,-0.01702,-0.00586
10.30000,-0.01719,0.00000
10.40000,-0.01735,-0.00139
10.50000,-0.01752,-0.00083
10.60000,-0.01769,-0.00220
10.70000,-0.01785,0.00080
10.80000,-0.01802,-0.00224
10.90000,-0.01818,-0.00778
11.00000,-0.01835,-0.00807
11.10000,-0.01851,-0.00055
11.20000,-0.01868,-0.00129
11.30000,-0.01885,-0.00319
11.40000,-0.01902,-0.00242
11.50000,-0.01919,-0.00080
11.60000,-0.01936,-0.00334
11.70000,-0.01952,-0.00351
11.80000,-0.01969,-0.00546
11.90000,-0.01985,-0.00435
12.00000,-0.02002,-0.00345
12.10000,-0.02018,-0.00243
12.20000,-0.02035,-0.00164
12.30000,-0.02052,-0.00180
12.40000,-0.02068,-0.00178
12.50000,-0.02086,-0.00393
12.60000,-0.02102,0.00006
12.70000,-0.02119,-0.00445
12.80000,-0.02136,-0.01114
12.90000,-0.02152,-0.00301
13.00000,-0.02169,-0.00080
13.10000,-0.02185,-0.00229
13.20000,-0.02202,-0.00407
13.30000,-0.02218,-0.00245
13.40000,-0.02235,-0.00054
13.50000,-0.02252,-0.00085
13.60000,-0.02269,-0.00396
13.70000,-0.02286,-0.00347
13.80000,-0.02302,-0.00263
13.90000,-0.02319,-0.00156
14.00000,-0.02336,-0.00365
14.10000,-0.02352,-0.00171
14.20000,-0.02369,-0.00426
14.30000,-0.02385,-0.00150
14.40000,-0.02402,-0.00319
14.50000,-0.02419,-0.00615
14.60000,-0.02436,-0.00877
14.70000,-0.02452,-0.00198
14.80000,-0.02469,0.00153
14.90000,-0.02486,-0.00414
15.00000,-0.02503,-0.00220
15.10000,-0.02520,-0.00402
15.20000,-0.02536,0.00087
15.30000,-0.02553,-0.00370
15.40000,-0.02569,-0.00659
15.50000,-0.02585,-0.00659
15.60000,-0.02602,-0.00556
15.70000,-0.02619,-0.00268
15.80000,-0.02636,-0.00144
15.90000,-0.02652,-0.00133
16.00000,-0.02669,-0.00247
16.10000,-0.02686,-0.00361
16.20000,-0.02702,-0.00132
16.30000,-0.02720,-0.00934
16.40000,-0.02736,-0.00443
16.50000,-0.02752,-0.00220
16.60000,-0.02769,-0.00097
16.70000,-0.02785,0.00230
16.80000,-0.02802,-0.00069
16.90000,-0.02818,-0.00247
17.00000,-0.02836,-0.00132
17.10000,-0.02852,-0.00220
17.20000,-0.02869,-0.00536
17.30000,-0.02886,-0.00585
17.40000,-0.02903,-0.00289
17.50000,-0.02920,-0.00307
17.60000,-0.02936,-0.00197
17.70000,-0.02953,-0.00205
17.80000,-0.02969,-0.00241
17.90000,-0.02985,-0.00045
18.00000,-0.03002,-0.00196
18.10000,-0.03019,-0.00608
18.20000,-0.03036,-0.00747
18.30000,-0.03052,0.00096
18.40000,-0.03069,-0.00317
18.50000,-0.03086,-0.00223
18.60000,-0.03102,-0.00047
18.70000,-0.03119,-0.00118
18.80000,-0.03136,0.00123
18.90000,-0.03152,-0.00511
19.00000,-0.03169,-0.00568
19.10000,-0.03185,-0.00428
19.20000,-0.03202,-0.00424
19.30000,-0.03218,-0.00247
19.40000,-0.03235,0.00337
19.50000,-0.03252,-0.00262
19.60000,-0.03268,0.00031
19.70000,-0.03286,-0.00275
19.80000,-0.03302,-0.00669
19.90000,-0.03319,-0.00567
20.00000,-0.03335,-0.00637
20.10000,-0.03352,0.00079
20.20000,-0.03369,-0.00222
20.30000,-0.03385,0.00145
20.40000,-0.03402,-0.00428
20.50000,-0.03418,-0.00137
20.60000,-0.03435,-0.00371
20.70000,-0.03452,-0.00569
20.80000,-0.03469,-0.00166
20.90000,-0.03485,-0.00671
21.00000,-0.03502,0.00007
21.10000,-0.03519,0.00259
21.20000,-0.03535,-0.00274
21.30000,-0.03552,0.00119
21.40000,-0.03569,-0.00123
21.50000,-0.03585,0.00182
21.60000,-0.03602,-0.00167
21.70000,-0.03618,-0.00752
21.80000,-0.03635,-0.00314
21.90000,-0.03651,-0.00277
22.00000,-0.03668,0.00114
22.10000,-0.03685,-0.00119
22.20000,-0.03702,-0.00181
22.30000,-0.03719,-0.00182
22.40000,-0.03735,-0.00395
22.50000,-0.03752,-0.00458
22.60000,-0.03768,-0.00967
22.70000,-0.03785,-0.00394
22.80000,-0.03801,-0.00311
22.90000,-0.03818,-0.00082
23.00000,-0.03835,0.00257
23.10000,-0.03852,0.00093
23.20000,-0.03869,-0.00305
23.30000,-0.03886,-0.00030
23.40000,-0.03902,-0.00064
23.50000,-0.03919,-0.00646
23.60000,-0.03936,-0.00623
23.70000,-0.03952,0.00153
23.80000,-0.03969,0.00148
23.90000,-0.03985,0.00003
24.00000,-0.04002,-0.00086
24.10000,-0.04019,0.00213
24.20000,-0.04035,-0.00020
24.30000,-0.04052,-0.00197
24.40000,-0.04069,-0.00466
24.50000,-0.04085,-0.00630
24.60000,-0.04102,-0.00231
24.70000,-0.04119,-0.00117
24.80000,-0.04135,0.00061
24.90000,-0.04152,0.00102
25.00000,-0.04169,-0.00305
25.10000,-0.04185,-0.00154
25.20000,-0.04202,0.00086
25.30000,-0.04219,-0.00545
25.40000,-0.04236,-0.00462
25.50000,-0.04252,0.00245
25.60000,-0.04269,-0.00186
25.70000,-0.04286,-0.00188
25.80000,-0.04302,-0.00301
25.90000,-0.04319,0.00306
26.00000,-0.04335,-0.00234
26.10000,-0.04352,-0.00104
26.20000,-0.04369,-0.00446
26.30000,-0.04385,-0.00283
26.40000,-0.04402,-0.00125
26.50000,-0.04418,-0.00355
26.60000,-0.04435,0.00124
26.70000,-0.04452,-0.00027
26.80000,-0.04469,-0.00184
26.90000,-0.04486,0.00000
27.00000,-0.04502,-0.00409
27.10000,-0.04519,-0.00324
27.20000,-0.04536,-0.00565
27.30000,-0.04552,0.00252
27.40000,-0.04569,0.00031
27.50000,-0.04585,-0.00420
27.60000,-0.04602,-0.00190
27.70000,-0.04619,-0.00068
27.80000,-0.04635,-0.00186
27.90000,-0.04652,-0.00372
28.00000,-0.04669,-0.00559
28.10000,-0.04685,-0.00639
28.20000,-0.04702,-0.00028
28.30000,-0.04719,0.00092
28.40000,-0.04735,-0.00193
28.50000,-0.04752,-0.00445
28.60000,-0.04769,-0.00079
28.70000,-0.04786,0.00040
28.80000,-0.04802,-0.00158
28.90000,-0.04818,-0.00871
29.00000,-0.04835,-0.00338
29.10000,-0.04851,-0.00057
29.20000,-0.04868,-0.00170
29.30000,-0.04885,0.00056
29.40000,-0.04902,-0.00011
29.50000,-0.04919,-0.00077
29.60000,-0.04935,-0.00155
29.70000,-0.04952,0.00254
29.80000,-0.04969,-0.00564
29.90000,-0.04986,-0.00315
30.00000,-0.05002,0.00170
30.10000,-0.05018,-0.00173
30.20000,-0.05035,-0.00210
30.30000,-0.05051,0.00214
30.40000,-0.05069,0.00336
30.50000,-0.05085,0.00154
30.60000,-0.05102,-0.00148
30.70000,-0.05119,-0.00234
30.80000,-0.05135,-0.00347
30.90000,-0.05152,0.00001
31.00000,-0.05168,-0.00236
31.10000,-0.05184,-0.00232
31.20000,-0.05201,-0.00204
31.30000,-0.05218,-0.00083
31.40000,-0.05235,-0.00163
31.50000,-0.05251,-0.00015
31.60000,-0.05268,-0.00411
31.70000,-0.05285,-0.00131
31.80000,-0.05302,0.00017
31.90000,-0.05318,0.00225
32.00000,-0.05335,0.00176
32.10000,-0.05352,-0.00075
32.20000,-0.05369,-0.00165
32.30000,-0.05385,0.00032
32.40000,-0.05402,0.00120
32.50000,-0.05418,-0.00811
32.60000,-0.05435,0.00116
32.70000,-0.05452,-0.00117
32.80000,-0.05469,-0.00029
32.90000,-0.05486,0.00186
33.00000,-0.05502,-0.00192
33.10000,-0.05519,-0.00120
33.20000,-0.05536,0.00019
33.30000,-0.05553,0.00267
33.40000,-0.05569,-0.00436
33.50000,-0.05586,-0.00539
33.60000,-0.05602,0.00309
33.70000,-0.05618,-0.00389
33.80000,-0.05635,-0.00042
33.90000,-0.05652,0.00147
34.00000,-0.05669,-0.00027
34.10000,-0.05686,-0.00015
34.20000,-0.05702,0.00023
34.30000,-0.05719,-0.00693
34.40000,-0.05735,-0.00088
34.50000,-0.05752,0.00352
34.60000,-0.05769,0.00040
34.70000,-0.05786,-0.00248
34.80000,-0.05802,0.00264
34.90000,-0.05819,-0.00144
35.00000,-0.05835,-0.00065
35.10000,-0.05852,-0.00086
35.20000,-0.05869,-0.00590
35.30000,-0.05886,-0.00229
35.40000,-0.05903,-0.00131
35.50000,-0.05919,-0.00422
35.60000,-0.05936,-0.00120
35.70000,-0.05952,0.00040
35.80000,-0.05969,-0.00221
35.90000,-0.05986,-0.00137
36.00000,-0.06002,-0.00529
36.10000,-0.06019,-0.00585
36.20000,-0.06035,-0.00543
36.30000,-0.06052,0.00210
36.40000,-0.06069,-0.00231
36.50000,-0.06086,-0.00060
36.60000,-0.06103,-0.00130
36.70000,-0.06119,0.00278
36.80000,-0.06136,-0.00048
36.90000,-0.06153,-0.00344
37.00000,-0.06169,-0.00585
37.10000,-0.06186,-0.00356
37.20000,-0.06202,0.00546
37.30000,-0.06219,0.00031
37.40000,-0.06236,-0.00309
37.50000,-0.06252,-0.00061
37.60000,-0.06270,-0.00144
37.70000,-0.06286,-0.00147
37.80000,-0.06303,-0.00193
37.90000,-0.06319,-0.00652
38.00000,-0.06336,-0.00280
38.10000,-0.06352,0.00110
38.20000,-0.06369,-0.00376
38.30000,-0.06386,0.00102
38.40000,-0.06402,-0.00453
38.50000,-0.06418,0.00052
38.60000,-0.06435,-0.00182
38.70000,-0.06452,-0.00291
38.80000,-0.06469,-0.00631
38.90000,-0.06486,-0.00332
39.00000,-0.06503,0.00033
39.10000,-0.06519,-0.00015
39.20000,-0.06535,0.00081
39.30000,-0.06552,-0.00281
39.40000,-0.06568,-0.00061
39.50000,-0.06585,-0.00333
39.60000,-0.06602,-0.00376
39.70000,-0.06618,-0.00405
39.80000,-0.06635,-0.00212
39.90000,-0.06651,-0.00136
40.00000,-0.06669,-0.00317
40.10000,-0.06685,-0.00180
40.20000,-0.06702,0.00287
40.30000,-0.06719,0.00161
40.40000,-0.06736,0.00143
40.50000,-0.06752,-0.00491
40.60000,-0.06769,-0.00629
40.70000,-0.06785,-0.00092
40.80000,-0.06802,-0.00275
40.90000,-0.06818,0.00157
41.00000,-0.06835,-0.00196
41.10000,-0.06851,-0.00140
41.20000,-0.06869,-0.00058
41.30000,-0.06885,-0.00322
41.40000,-0.06902,-0.00330
41.50000,-0.06919,-0.00864
41.60000,-0.06935,-0.00445
41.70000,-0.06951,0.00107
41.80000,-0.06969,-0.00168
41.90000,-0.06984,-0.00289
42.00000,-0.07002,-0.00279
42.10000,-0.07018,-0.00097
42.20000,-0.07036,-0.00129
42.30000,-0.07051,-0.00093
42.40000,-0.07069,-0.00471
42.50000,-0.07085,-0.00008
42.60000,-0.07102,-0.00324
42.70000,-0.07118,-0.00116
42.80000,-0.07135,-0.00028
42.90000,-0.07152,0.00000
43.00000,-0.07169,-0.00153
43.10000,-0.07185,0.00094
43.20000,-0.07201,-0.00370
43.30000,-0.07218,-0.00694
43.40000,-0.07235,-0.00751
43.50000,-0.07251,0.00334
43.60000,-0.07269,-0.00261
43.70000,-0.07285,0.00210
43.80000,-0.07302,0.00365
43.90000,-0.07319,0.00160
44.00000,-0.07335,-0.00071
44.10000,-0.07352,-0.00027
44.20000,-0.07369,-0.00579
44.30000,-0.07385,-0.00159
44.40000,-0.07402,0.00088
44.50000,-0.07418,-0.00076
44.60000,-0.07435,-0.00290
44.70000,-0.07451,0.00193
44.80000,-0.07469,-0.00080
44.90000,-0.07485,0.00230
45.00000,-0.07503,-0.00073
45.10000,-0.07519,-0.00816
45.20000,-0.07536,-0.00423
45.30000,-0.07552,-0.00144
45.40000,-0.07568,0.00047
45.50000,-0.07586,-0.00253
45.60000,-0.07602,0.00031
45.70000,-0.07618,0.00126
45.80000,-0.07635,-0.00324
45.90000,-0.07651,-0.00534
46.00000,-0.07668,-0.00319
46.10000,-0.07686,-0.00103
46.20000,-0.07702,-0.00163
46.30000,-0.07718,0.00085
46.40000,-0.07735,0.00212
46.50000,-0.07751,0.00121
46.60000,-0.07768,-0.00345
46.70000,-0.07786,-0.00018
46.80000,-0.07802,-0.00314
46.90000,-0.07819,-0.00423
47.00000,-0.07835,-0.00380
47.10000,-0.07852,0.00054
47.20000,-0.07869,-0.00217
47.30000,-0.07885,-0.00357
47.40000,-0.07902,0.00148
47.50000,-0.07919,0.00025
47.60000,-0.07936,-0.00176
47.70000,-0.07952,-0.00493
47.80000,-0.07969,-0.00515
47.90000,-0.07985,-0.00238
48.00000,-0.08002,-0.00022
48.10000,-0.08019,0.00236
48.20000,-0.08035,-0.00296
48.30000,-0.08051,0.00060
48.40000,-0.08068,-0.00229
48.50000,-0.08085,-0.00372
48.60000,-0.08104,-0.00499
48.70000,-0.08119,-0.00634
48.80000,-0.08135,-0.00414
48.90000,-0.08152,-0.00135
49.00000,-0.08168,0.00036
49.10000,-0.08185,0.00123
49.20000,-0.08202,0.00250
49.30000,-0.08218,-0.00128
49.40000,-0.08235,-0.00178
49.50000,-0.08251,-0.00409
49.60000,-0.08268,-0.00753
49.70000,-0.08285,-0.00682
49.80000,-0.08302,0.00016
49.90000,-0.08319,-0.00107
50.00000,-0.08335,0.00195
50.10000,-0.08351,0.00247
50.20000,-0.08368,0.00052
50.30000,-0.08385,-0.00119
50.40000,-0.08401,-0.00364
50.50000,-0.08418,-0.00673
50.60000,-0.08434,-0.00591
50.70000,-0.08450,-0.00159
50.80000,-0.08468,0.00185
50.90000,-0.08485,-0.00258
51.00000,-0.08502,-0.00001
51.10000,-0.08519,-0.00135
51.20000,-0.08536,-0.00213
51.30000,-0.08551,-0.00564
51.40000,-0.08568,-0.00792
51.50000,-0.08584,-0.00244
51.60000,-0.08601,-0.00299
51.70000,-0.08619,-0.00422
51.80000,-0.08634,0.00086
51.90000,-0.08652,-0.00139
52.00000,-0.08668,-0.00151
52.10000,-0.08684,-0.00435
52.20000,-0.08702,-0.00277
52.30000,-0.08719,-0.00795
52.40000,-0.08735,-0.00625
52.50000,-0.08752,0.00086
52.60000,-0.08768,-0.00045
52.70000,-0.08785,-0.00190
52.80000,-0.08801,-0.00294
52.90000,-0.08818,-0.00085
53.00000,-0.08835,-0.00433
53.10000,-0.08851,-0.00549
53.20000,-0.08868,-0.01201
53.30000,-0.08885,-0.00173
53.40000,-0.08902,0.00176
53.50000,-0.08918,-0.00333
53.60000,-0.08935,-0.00318
53.70000,-0.08952,0.00344
53.80000,-0.08969,-0.00166
53.90000,-0.08985,-0.00292
54.00000,-0.09002,-0.00216
54.10000,-0.09019,-0.00984
54.20000,-0.09034,-0.00480
54.30000,-0.09051,-0.00397
54.40000,-0.09068,-0.00175
54.50000,-0.09085,0.00029
54.60000,-0.09102,0.00075
54.70000,-0.09118,-0.00045
54.80000,-0.09135,-0.00108
54.90000,-0.09152,-0.00327
55.00000,-0.09168,-0.00693
55.10000,-0.09185,-0.00378
55.20000,-0.09202,0.00083
55.30000,-0.09218,-0.00039
55.40000,-0.09235,0.00079
55.50000,-0.09250,0.00072
55.60000,-0.09268,-0.00271
55.70000,-0.09286,-0.00033
55.80000,-0.09302,-0.00664
55.90000,-0.09318,-0.01001
56.00000,-0.09336,-0.00130
56.10000,-0.09352,0.00061
56.20000,-0.09368,-0.00242
56.30000,-0.09385,0.00150
56.40000,-0.09401,-0.00063
56.50000,-0.09418,0.00117
56.60000,-0.09435,-0.00124
56.70000,-0.09452,-0.00658
56.80000,-0.09469,-0.01122
56.90000,-0.09485,-0.00149
57.00000,-0.09503,-0.00406
57.10000,-0.09519,-0.00050
57.20000,-0.09536,-0.00194
57.30000,-0.09552,0.00039
57.40000,-0.09568,0.00072
57.50000,-0.09585,-0.00485
57.60000,-0.09601,-0.00470
57.70000,-0.09619,-0.01102
57.80000,-0.09635,-0.00089
57.90000,-0.09651,0.00045
58.00000,-0.09668,0.00115
58.10000,-0.09685,0.00010
58.20000,-0.09703,-0.00387
58.30000,-0.09719,-0.00053
58.40000,-0.09736,-0.00242
58.50000,-0.09752,-0.00370
58.60000,-0.09769,-0.01108
58.70000,-0.09785,-0.00188
58.80000,-0.09801,0.00071
58.90000,-0.09819,-0.00285
59.00000,-0.09834,0.00098
59.10000,-0.09852,0.00340
59.20000,-0.09869,0.00073
59.30000,-0.09886,-0.00067
59.40000,-0.09903,-0.00645
59.50000,-0.09919,-0.00981
59.60000,-0.09936,-0.00196
59.70000,-0.09952,0.00081
59.80000,-0.09969,-0.00134
59.90000,-0.09985,-0.00065
60.00000,-0.10001,0.00282
60.10000,-0.10018,-0.00078
60.20000,-0.10034,-0.00055
60.30000,-0.10052,-0.00684
60.40000,-0.10068,-0.00849
60.50000,-0.10085,-0.00411
60.60000,-0.10102,0.00142
60.70000,-0.10119,-0.00151
60.80000,-0.10135,0.00149
60.90000,-0.10152,0.00159
61.00000,-0.10168,-0.00001
61.10000,-0.10185,-0.00140
61.20000,-0.10202,-0.00667
61.30000,-0.10218,-0.00751
61.40000,-0.10234,0.00118
61.50000,-0.10252,0.00143
61.60000,-0.10269,0.00027
61.70000,-0.10286,0.00114
61.80000,-0.10302,0.00405
61.90000,-0.10319,-0.00132
62.00000,-0.10336,-0.00142
62.10000,-0.10352,-0.00590
62.20000,-0.10369,-0.00996
62.30000,-0.10386,0.00215
62.40000,-0.10401,0.00300
62.50000,-0.10419,-0.00352
62.60000,-0.10435,0.00480
62.70000,-0.10452,0.00136
62.80000,-0.10469,0.00084
62.90000,-0.10485,-0.00160
63.00000,-0.10502,-0.00305
63.10000,-0.10519,-0.00516
63.20000,-0.10535,-0.00130
63.30000,-0.10552,-0.00094
63.40000,-0.10569,0.00116
63.50000,-0.10585,-0.00054
63.60000,-0.10602,0.00073
63.70000,-0.10618,0.00217
63.80000,-0.10634,-0.00366
63.90000,-0.10652,-0.00562
64.00000,-0.10668,-0.00374
64.10000,-0.10686,0.00005
64.20000,-0.10702,-0.00273
64.30000,-0.10718,-0.00173
64.40000,-0.10736,-0.00217
64.50000,-0.10752,0.00439
64.60000,-0.10769,0.00006
64.70000,-0.10785,-0.00475
64.80000,-0.10802,-0.00541
64.90000,-0.10819,-0.00562
65.00000,-0.10834,-0.00011
65.10000,-0.10852,0.00151
65.20000,-0.10868,-0.00005
65.30000,-0.10885,0.00331
65.40000,-0.10902,0.00309
65.50000,-0.10918,0.00068
65.60000,-0.10935,-0.00046
65.70000,-0.10951,-0.00546
65.79999,-0.10969,-0.00451
65.90000,-0.10985,0.00108
66.00000,-0.11002,0.00129
66.10000,-0.11018,-0.00221
66.20000,-0.11035,0.00133
66.29999,-0.11052,0.00526
66.40000,-0.11068,0.00114
66.50000,-0.11086,-0.00023
66.60000,-0.11103,-0.00342
66.70000,-0.11120,-0.00485
66.79999,-0.11136,-0.00202
66.90000,-0.11152,0.00370
67.00000,-0.11169,-0.00083
67.10000,-0.11186,0.00418
67.20000,-0.11201,0.00445
67.29999,-0.11218,0.00256
67.40000,-0.11234,0.00122
67.50000,-0.11251,-0.00358
67.60000,-0.11268,-0.00246
67.70000,-0.11285,0.00136
67.79999,-0.11302,0.00122
67.90000,-0.11319,-0.00206
68.00000,-0.11335,0.00366
68.10000,-0.11352,0.00311
68.20000,-0.11368,0.00227
68.29999,-0.11385,-0.00050
68.40000,-0.11401,-0.00323
68.50000,-0.11418,-0.00194
68.60000,-0.11435,0.00140
68.70000,-0.11452,0.00110
68.79999,-0.11468,-0.00211
68.90000,-0.11485,0.00108
69.00000,-0.11502,-0.00138
69.10000,-0.11519,0.00173
69.20000,-0.11535,0.00319
69.29999,-0.11552,-0.00420
69.40000,-0.11569,-0.00571
69.50000,-0.11585,0.00298
69.60000,-0.11602,0.00477
69.70000,-0.11618,-0.00100
69.79999,-0.11634,0.00342
69.90000,-0.11651,0.00377
70.00000,-0.11668,0.00163
70.10000,-0.11685,0.00101
70.20000,-0.11702,-0.00489
70.29999,-0.11718,-0.00408
70.40000,-0.11734,-0.00024
70.50000,-0.11751,0.00233
70.60000,-0.11768,0.00076
70.70000,-0.11784,0.00292
70.79999,-0.11801,0.00501
70.90000,-0.11817,0.00025
71.00000,-0.11833,0.00073
71.10000,-0.11851,-0.00433
71.20000,-0.11867,-0.00377
71.29999,-0.11885,0.00059
71.40000,-0.11901,0.00247
71.50000,-0.11917,-0.00104
71.60000,-0.11935,0.00304
71.70000,-0.11951,0.00298
71.79999,-0.11968,0.00159
71.90000,-0.11984,0.00196
72.00000,-0.12001,-0.00362
72.10000,-0.12018,0.00152
72.20000,-0.12034,0.00197
72.29999,-0.12051,0.00178
72.40000,-0.12068,0.00025
72.50000,-0.12085,0.00715
72.60000,-0.12101,0.00741
72.70000,-0.12118,0.00109
72.79999,-0.12135,-0.00031
72.90000,-0.12151,-0.00795
73.00000,-0.12168,-0.00308
73.10000,-0.12185,0.00371
73.20000,-0.12201,0.00406
73.29999,-0.12217,-0.00011
73.40000,-0.12234,0.00140
73.50000,-0.12251,0.00206
73.60000,-0.12268,0.00357
73.70000,-0.12285,-0.00142
73.79999,-0.12302,-0.00261
73.90000,-0.12318,-0.00447
74.00000,-0.12335,0.00349
74.10000,-0.12351,0.00128
74.20000,-0.12368,-0.00007
74.29999,-0.12384,0.00517
74.40000,-0.12401,0.00393
74.50000,-0.12417,0.00221
74.60000,-0.12434,0.00130
74.70000,-0.12451,-0.00344
74.79999,-0.12467,-0.00440
74.90000,-0.12485,0.00224
75.00000,-0.12501,-0.00016
75.10000,-0.12518,0.00079
75.20000,-0.12535,0.00337
75.29999,-0.12551,0.00211
75.40000,-0.12568,0.00098
75.50000,-0.12584,0.00131
75.60000,-0.12601,-0.00702
75.70000,-0.12618,0.00275
75.79999,-0.12634,0.00227
75.90000,-0.12651,0.00039
76.00000,-0.12668,0.00249
76.10000,-0.12685,0.00463
76.20000,-0.12701,0.00480
76.29999,-0.12718,0.00410
76.40000,-0.12735,-0.00132
76.50000,-0.12751,-0.00155
76.60000,-0.12769,-0.00011
76.70000,-0.12785,0.00276
76.79999,-0.12801,0.00255
76.90000,-0.12817,-0.00044
77.00000,-0.12834,0.00304
77.10000,-0.12851,0.00322
77.20000,-0.12868,0.00349
77.29999,-0.12885,-0.00197
77.40000,-0.12902,-0.00125
77.50000,-0.12918,-0.00104
77.60000,-0.12935,0.00334
77.70000,-0.12952,0.00057
77.79999,-0.12968,0.00204
77.90000,-0.12984,0.00224
78.00000,-0.13001,0.00282
78.10000,-0.13018,0.00044
78.20000,-0.13034,0.00079
78.29999,-0.13052,-0.00357
78.40000,-0.13069,0.00151
78.50000,-0.13086,0.00339
78.60000,-0.13102,0.00327
78.70000,-0.13119,0.00131
78.79999,-0.13135,0.00256
78.90000,-0.13152,0.00283
79.00000,-0.13169,0.00057
79.10000,-0.13185,0.00031
79.20000,-0.13202,-0.00566
79.29999,-0.13218,-0.00145
79.40000,-0.13234,-0.00003
79.50000,-0.13251,0.00094
79.60000,-0.13268,-0.00258
79.70000,-0.13285,0.00247
79.79999,-0.13302,0.00272
79.90000,-0.13319,0.00143
80.00000,-0.13335,0.00070
80.10000,-0.13351,-0.00087
80.20000,-0.13368,-0.00245
80.29999,-0.13384,0.00312
80.40000,-0.13401,-0.00033
80.50000,-0.13417,0.00375
80.60000,-0.13434,0.00063
80.70000,-0.13451,0.00017
80.79999,-0.13467,-0.00021
80.90000,-0.13485,-0.00156
81.00000,-0.13501,-0.00072
81.10000,-0.13518,-0.00048
81.20000,-0.13535,-0.00103
81.29999,-0.13551,0.00042
81.40000,-0.13568,-0.00177
81.50000,-0.13584,0.00308
81.60000,-0.13601,0.00357
81.70000,-0.13618,0.00026
81.79999,-0.13634,-0.00084
81.90000,-0.13651,0.00078
82.00000,-0.13668,0.00206
82.10000,-0.13685,-0.00001
82.20000,-0.13701,0.00270
82.29999,-0.13718,-0.00071
82.40000,-0.13735,0.00406
82.50000,-0.13752,0.00609
82.60000,-0.13768,-0.00085
82.70000,-0.13784,0.00276
82.79999,-0.13801,-0.00028
82.90000,-0.13818,0.00297
83.00000,-0.13834,0.00324
83.10000,-0.13851,0.00063
83.20000,-0.13868,0.00383
83.29999,-0.13885,-0.00013
83.40000,-0.13901,0.00303
83.50000,-0.13919,-0.00075
83.60000,-0.13935,-0.00257
83.70000,-0.13951,0.00075
83.79999,-0.13968,0.00118
83.90000,-0.13985,0.00536
84.00000,-0.14002,0.00241
84.10000,-0.14018,0.00256
84.20000,-0.14035,0.00548
84.29999,-0.14051,0.00395
84.40000,-0.14068,0.00067
84.50000,-0.14085,-0.00270
84.60000,-0.14102,0.00303
84.70000,-0.14119,0.00435
84.79999,-0.14135,0.00282
84.90000,-0.14151,0.00222
85.00000,-0.14168,-0.00144
85.10000,-0.14185,0.00371
85.20000,-0.14201,0.00522
85.29999,-0.14217,0.00145
85.40000,-0.14235,0.00059
85.50000,-0.14251,-0.00287
85.60000,-0.14268,0.00475
85.70000,-0.14285,0.00378
85.79999,-0.14302,0.00107
85.90000,-0.14319,-0.00038
86.00000,-0.14335,0.00599
86.10000,-0.14352,0.00533
86.20000,-0.14368,0.00121
86.29999,-0.14385,0.00130
86.40000,-0.14402,0.00089
86.50000,-0.14418,0.00219
86.60000,-0.14435,0.00164
86.70000,-0.14452,0.00210
86.79999,-0.14469,0.00323
86.90000,-0.14486,0.00403
87.00000,-0.14502,0.00192
87.10000,-0.14519,0.00054
87.20000,-0.14535,-0.00246
87.29999,-0.14552,0.00019
87.40000,-0.14569,-0.00197
87.50000,-0.14585,0.00384
87.60000,-0.14602,0.00137
87.70000,-0.14618,0.00380
87.79999,-0.14635,0.00671
87.90000,-0.14652,0.00429
88.00000,-0.14668,0.00524
88.10000,-0.14685,-0.00099
88.20000,-0.14702,0.00288
88.29999,-0.14719,0.00074
88.40000,-0.14735,0.00517
88.50000,-0.14751,0.00098
88.60000,-0.14768,0.00402
88.70000,-0.14785,0.00663
88.79999,-0.14801,0.00430
88.90000,-0.14818,0.00087
89.00000,-0.14834,-0.00005
89.10000,-0.14851,-0.00209
89.20000,-0.14868,0.00474
89.29999,-0.14885,0.00150
89.40000,-0.14902,-0.00106
89.50000,-0.14919,0.00334
89.60000,-0.14935,0.00448
89.70000,-0.14951,-0.00012
89.79999,-0.14968,0.00268
89.90000,-0.14984,-0.00265
90.00000,-0.15001,0.00095
90.10000,-0.15017,0.00021
90.20000,-0.15034,0.00075
90.29999,-0.15051,0.00128
90.40000,-0.15067,0.00406
90.50000,-0.15084,0.00563
90.60000,-0.15101,0.00383
90.70000,-0.15118,0.00008
90.79999,-0.15134,-0.00111
90.89999,-0.15151,0.00075
91.00000,-0.15168,0.00024
91.10000,-0.15184,0.00614
91.20000,-0.15201,0.00229
91.29999,-0.15217,0.00343
91.39999,-0.15234,0.00711
91.50000,-0.15250,0.00138
91.60000,-0.15267,0.00029
91.70000,-0.15285,0.00009
91.79999,-0.15301,0.00012
91.89999,-0.15318,-0.00026
92.00000,-0.15335,0.00358
92.10000,-0.15351,0.00080
92.20000,-0.15368,0.00126
92.29999,-0.15384,0.00221
92.39999,-0.15401,0.00843
92.50000,-0.15417,-0.00154
92.60000,-0.15434,-0.00312
92.70000,-0.15451,-0.00073
92.79999,-0.15467,-0.00389
92.89999,-0.15485,0.00231
93.00000,-0.15501,0.00047
93.10000,-0.15518,0.00285
93.20000,-0.15535,0.00557
93.29999,-0.15551,-0.00103
93.39999,-0.15568,0.00190
93.50000,-0.15584,-0.00115
93.60000,-0.15601,-0.00180
93.70000,-0.15618,0.00176
93.79999,-0.15635,0.00070
93.89999,-0.15651,0.00154
94.00000,-0.15668,-0.00019
94.10000,-0.15685,0.00451
94.20000,-0.15701,0.00560
94.29999,-0.15718,-0.00012
94.39999,-0.15734,-0.00215
94.50000,-0.15751,-0.00241
94.60000,-0.15768,-0.00086
94.70000,-0.15784,-0.00061
94.79999,-0.15801,-0.00034
94.89999,-0.15817,0.00247
95.00000,-0.15834,0.00712
95.10000,-0.15850,0.00159
95.20000,-0.15867,0.00246
95.29999,-0.15884,-0.00264
95.39999,-0.15901,-0.00107
95.50000,-0.15918,0.00148
95.60000,-0.15934,0.00215
95.70000,-0.15951,0.00171
95.79999,-0.15968,0.00335
95.89999,-0.15984,0.00442
96.00000,-0.16001,0.00482
96.10000,-0.16017,0.00043
96.20000,-0.16034,-0.00409
96.29999,-0.16051,-0.00360
96.39999,-0.16067,-0.00093
96.50000,-0.16084,0.00039
96.60000,-0.16101,-0.00010
96.70000,-0.16118,0.00196
96.79999,-0.16134,0.00129
96.89999,-0.16151,0.00225
97.00000,-0.16168,0.00002
97.10000,-0.16184,-0.00174
97.20000,-0.16201,-0.00122
97.29999,-0.16217,0.00037
97.39999,-0.16234,0.00520
97.50000,-0.16251,0.00101
97.60000,-0.16268,0.00125
97.70000,-0.16285,0.00484
97.79999,-0.16301,0.00210
97.89999,-0.16318,0.00059
98.00000,-0.16335,-0.00413
98.10000,-0.16351,-0.00672
98.20000,-0.16368,0.00263
98.29999,-0.16384,0.00347
98.39999,-0.16401,0.00403
98.50000,-0.16417,0.00138
98.60000,-0.16434,0.00302
98.70000,-0.16451,0.00118
98.79999,-0.16468,-0.00053
98.89999,-0.16485,-0.00396
99.00000,-0.16501,-0.00189
99.10000,-0.16518,0.00096
99.20000,-0.16534,0.00127
99.29999,-0.16551,-0.00259
99.39999,-0.16568,0.00524
99.50000,-0.16584,0.00089
99.60000,-0.16601,0.00198
99.70000,-0.16617,0.00129
99.79999,-0.16634,-0.00335
99.89999,-0.16651,-0.00846
100.00000,-0.16667,-0.00156
100.10000,-0.16684,0.00012
100.20000,-0.16700,-0.00013
100.29999,-0.16718,0.00165
100.39999,-0.16734,0.00123
100.50000,-0.16750,-0.00300
100.60000,-0.16767,-0.00015
100.70000,-0.16784,-0.00495
100.79999,-0.16801,-0.00192
100.89999,-0.16817,-0.00353
101.00000,-0.16834,0.00106
101.10000,-0.16851,-0.00012
101.20000,-0.16868,0.00215
101.29999,-0.16884,0.00182
101.39999,-0.16901,0.00279
101.50000,-0.16918,-0.00252
101.60000,-0.16934,-0.00464
101.70000,-0.16951,-0.00590
101.79999,-0.16968,-0.00173
101.89999,-0.16984,0.00041
102.00000,-0.17001,-0.00029
102.10000,-0.17017,-0.00110
102.20000,-0.17034,-0.00004
102.29999,-0.17051,0.00227
102.39999,-0.17067,-0.00349
102.50000,-0.17084,-0.00334
102.60000,-0.17101,-0.00439
102.70000,-0.17118,-0.00263
102.79999,-0.17134,0.00074
102.89999,-0.17151,0.00140
103.00000,-0.17167,0.00271
103.10000,-0.17184,-0.00095
103.20000,-0.17201,0.00029
103.29999,-0.17217,-0.00020
103.39999,-0.17234,-0.00615
103.50000,-0.17251,-0.00381
103.60000,-0.17268,-0.00307
103.70000,-0.17284,-0.00011
103.79999,-0.17301,-0.00009
103.89999,-0.17318,0.00084
104.00000,-0.17334,0.00302
104.10000,-0.17351,-0.00186
104.20000,-0.17367,-0.00006
104.29999,-0.17383,-0.00553
104.39999,-0.17401,-0.00494
104.50000,-0.17417,-0.00192
104.60000,-0.17434,0.00308
104.70000,-0.17451,0.00193
104.79999,-0.17467,0.00024
104.89999,-0.17485,0.00093
105.00000,-0.17501,0.00269
105.10000,-0.17518,-0.00236
105.20000,-0.17534,-0.00507
105.29999,-0.17551,-0.00710
105.39999,-0.17567,-0.00027
105.50000,-0.17585,0.00085
105.60000,-0.17600,0.00302
105.70000,-0.17617,0.00007
105.79999,-0.17634,0.00357
105.89999,-0.17650,-0.00074
106.00000,-0.17668,-0.00276
106.10000,-0.17685,-0.00558
106.20000,-0.17701,-0.00492
106.29999,-0.17718,-0.00213
106.39999,-0.17734,0.00134
106.50000,-0.17751,0.00150
106.60000,-0.17767,0.00108
106.70000,-0.17784,0.00038
106.79999,-0.17801,0.00358
106.89999,-0.17817,-0.00275
107.00000,-0.17834,-0.00789
107.10000,-0.17851,-0.00287
107.20000,-0.17868,-0.00390
107.29999,-0.17884,-0.00063
107.39999,-0.17901,0.00131
107.50000,-0.17918,0.00008
107.60000,-0.17934,0.00256
107.70000,-0.17951,-0.00367
107.79999,-0.17968,-0.00116
107.89999,-0.17984,-0.00621
108.00000,-0.18001,-0.00350
108.10000,-0.18017,-0.00319
108.20000,-0.18034,0.00020
108.29999,-0.18051,-0.00085
108.39999,-0.18068,0.00365
108.50000,-0.18085,-0.00022
108.60000,-0.18101,0.00141
108.70000,-0.18118,-0.00114
108.79999,-0.18135,-0.00274
108.89999,-0.18151,-0.00439
109.00000,-0.18168,-0.00254
109.10000,-0.18185,0.00262
109.20000,-0.18201,0.00118
109.29999,-0.18217,0.00013
109.39999,-0.18235,0.00000
109.50000,-0.18251,-0.00006
109.60000,-0.18268,-0.00032
109.70000,-0.18284,-0.00458
109.79999,-0.18301,-0.00338
109.89999,-0.18318,0.00001
110.00000,-0.18335,0.00187
110.10000,-0.18351,-0.00157
110.20000,-0.18368,0.00210
110.29999,-0.18384,0.00172
110.39999,-0.18401,-0.00124
110.50000,-0.18416,-0.00157
110.60000,-0.18434,-0.00726
110.70000,-0.18451,-0.00080
110.79999,-0.18468,-0.00063
110.89999,-0.18484,-0.00151
111.00000,-0.18501,0.00133
111.10000,-0.18518,0.00054
111.20000,-0.18534,0.00116
111.29999,-0.18551,-0.00205
111.39999,-0.18568,-0.00253
111.50000,-0.18584,-0.00301
111.60000,-0.18600,0.00003
111.70000,-0.18617,0.00132
111.79999,-0.18634,0.00175
111.89999,-0.18650,-0.00194
112.00000,-0.18668,-0.00439
112.10000,-0.18684,-0.00415
112.20000,-0.18702,-0.00041
112.29999,-0.18718,0.00049
112.39999,-0.18734,-0.00422
112.50000,-0.18751,-0.00343
112.60000,-0.18768,-0.00143
112.70000,-0.18784,0.00004
112.79999,-0.18801,0.00104
112.89999,-0.18817,-0.00101
113.00000,-0.18834,-0.00012
113.10000,-0.18850,-0.00077
113.20000,-0.18868,-0.00024
113.29999,-0.18884,-0.00155
113.39999,-0.18901,-0.00075
113.50000,-0.18918,-0.00029
113.60000,-0.18934,0.00057
113.70000,-0.18951,0.00183
113.79999,-0.18968,-0.00443
113.89999,-0.18984,0.00617
114.00000,-0.19000,-0.00305
114.10000,-0.19017,-0.00409
114.20000,-0.19035,-0.00293
114.29999,-0.19050,-0.00277
114.39999,-0.19068,0.00197
114.50000,-0.19084,-0.00012
114.60000,-0.19102,0.00261
114.70000,-0.19118,-0.00060
114.79999,-0.19134,0.00016
114.89999,-0.19151,0.00268
115.00000,-0.19168,-0.00400
115.10000,-0.19185,-0.00325
115.20000,-0.19201,-0.00886
115.29999,-0.19217,0.00093
115.39999,-0.19234,0.00105
115.50000,-0.19250,0.00420
115.60000,-0.19268,0.00242
115.70000,-0.19284,0.00084
115.79999,-0.19301,0.00010
115.89999,-0.19318,-0.00106
116.00000,-0.19335,-0.00437
116.10000,-0.19351,-0.00014
116.20000,-0.19368,-0.00088
116.29999,-0.19385,0.00558
116.39999,-0.19401,0.00122
116.50000,-0.19417,0.00188
116.60000,-0.19434,0.00183
116.70000,-0.19452,-0.00006
116.79999,-0.19468,0.00024
116.89999,-0.19485,-0.00218
117.00000,-0.19502,0.00060
117.10000,-0.19518,0.00180
117.20000,-0.19535,0.00256
117.29999,-0.19551,0.00115
117.39999,-0.19567,-0.00256
117.50000,-0.19584,0.00245
117.60000,-0.19600,0.00221
117.70000,-0.19618,0.00020
117.79999,-0.19634,-0.00449
117.89999,-0.19650,0.00003
118.00000,-0.19667,0.00247
118.10000,-0.19684,0.00217
118.20000,-0.19701,0.00358
118.29999,-0.19718,0.00005
118.39999,-0.19734,0.00220
118.50000,-0.19751,0.00218
118.60000,-0.19768,-0.00144
118.70000,-0.19784,-0.00272
118.79999,-0.19801,-0.00121
118.89999,-0.19818,0.00081
119.00000,-0.19834,0.00276
119.10000,-0.19851,-0.00109
119.20000,-0.19868,0.00585
119.29999,-0.19884,0.00064
119.39999,-0.19902,0.00192
119.50000,-0.19918,-0.00124
119.60000,-0.19935,-0.00260
119.70000,-0.19951,-0.00352
119.79999,-0.19967,0.00180
119.89999,-0.19985,0.00382
120.00000,-0.20001,-0.00133
120.10000,-0.20017,0.00231
120.20000,-0.20033,-0.00154
120.29999,-0.20050,0.00182
120.39999,-0.20067,-0.00281
120.50000,-0.20083,-0.00106
120.60000,-0.20101,-0.00783
120.70000,-0.20118,0.00171
120.79999,-0.20134,0.00173
120.89999,-0.20150,-0.00661
121.00000,-0.20167,0.00117
121.10000,-0.20184,0.00435
121.20000,-0.20200,-0.00013
121.29999,-0.20218,0.00008
121.39999,-0.20234,0.00133
121.50000,-0.20250,-0.00192
121.60000,-0.20267,-0.00004
121.70000,-0.20284,-0.00064
121.79999,-0.20301,0.00176
121.89999,-0.20318,0.00056
122.00000,-0.20334,-0.00528
122.10000,-0.20351,-0.01095
122.20000,-0.20367,-0.02444
122.29999,-0.20384,-0.03186
122.39999,-0.20400,-0.04599
122.50000,-0.20416,-0.06094
122.60000,-0.20433,-0.08096
122.70000,-0.20450,-0.07298
122.79999,-0.20467,-0.09445
122.89999,-0.20483,-0.11884
123.00000,-0.20501,-0.14364
123.10000,-0.20518,-0.17663
123.20000,-0.20535,-0.20745
123.29999,-0.20551,-0.24552
123.39999,-0.20567,-0.27424
123.50000,-0.20584,-0.31490
123.60000,-0.20600,-0.35769
123.70000,-0.20618,-0.40929
123.79999,-0.20634,-0.45696
123.89999,-0.20651,-0.50080
124.00000,-0.20667,-0.54780
124.10000,-0.20684,-0.59437
124.20000,-0.20701,-0.63452
124.29999,-0.20718,-0.67846
124.39999,-0.20735,-0.71989
124.50000,-0.20751,-0.75317
124.60000,-0.20768,-0.79781
124.70000,-0.20784,-0.82639
124.79999,-0.20801,-0.87452
124.89999,-0.20818,-0.91907
125.00000,-0.20834,-0.96887
125.10000,-0.20850,-1.02614
125.20000,-0.20867,-1.07356
125.29999,-0.20884,-1.14346
125.39999,-0.20901,-1.17287
125.45580,-0.20910,-1.19953
125.50000,-0.20918,-1.22991
125.60000,-0.20935,-1.27523
125.70000,-0.20951,-1.32219
125.79999,-0.20967,-1.39057
125.89999,-0.20984,-1.43467
126.00000,-0.21001,-1.48791
126.10000,-0.21018,-1.53586
126.20000,-0.21034,-1.58702
126.29999,-0.21050,-1.64770
126.39999,-0.21067,-1.69509
126.50000,-0.21084,-1.76263
126.60000,-0.21101,-1.79660
126.70000,-0.21118,-1.83913
126.79999,-0.21135,-1.89268
126.89999,-0.21151,-1.95604
127.00000,-0.21167,-2.01675
127.10000,-0.21184,-2.07420
127.20000,-0.21201,-2.13963
127.29999,-0.21218,-2.21225
127.39999,-0.21234,-2.27870
127.50000,-0.21251,-2.37055
127.60000,-0.21268,-2.42131
127.65280,-0.21276,-2.45229
127.70000,-0.21284,-2.49153
127.79999,-0.21302,-2.54814
127.89999,-0.21318,-2.57818
128.00000,-0.21335,-2.64616
128.09999,-0.21351,-2.70010
128.20000,-0.21367,-2.77357
128.30000,-0.21384,-2.83036
128.39999,-0.21401,-2.90633
128.50000,-0.21417,-2.98995
128.59999,-0.21434,-3.07176
128.70000,-0.21451,-3.17729
128.80000,-0.21468,-3.25303
128.89999,-0.21485,-3.35254
129.00000,-0.21501,-3.41473
129.09999,-0.21518,-3.50497
129.20000,-0.21535,-3.55300
129.30000,-0.21550,-3.62970
129.39999,-0.21568,-3.69860
129.44879,-0.21575,-3.71818
129.50000,-0.21584,-3.77104
129.59999,-0.21600,-3.84899
129.70000,-0.21617,-3.92742
129.80000,-0.21633,-4.02584
129.89999,-0.21650,-4.11402
130.00000,-0.21667,-4.21525
130.09999,-0.21684,-4.30218
130.20000,-0.21701,-4.40677
130.30000,-0.21717,-4.48504
130.39999,-0.21733,-4.57860
130.50000,-0.21750,-4.67330
130.59999,-0.21768,-4.77665
130.70000,-0.21784,-4.86981
130.77480,-0.21796,-4.94592
130.80000,-0.21800,-4.97723
130.89999,-0.21818,-5.07061
131.00000,-0.21833,-5.10822
131.09998,-0.21850,-5.22575
131.20000,-0.21867,-5.33667
131.30000,-0.21884,-5.44603
131.40000,-0.21901,-5.56248
131.50000,-0.21917,-5.65626
131.59998,-0.21934,-5.76324
131.70000,-0.21950,-5.86089
131.80000,-0.21968,-5.97705
131.90000,-0.21984,-6.06875
132.00000,-0.22000,-6.17806
132.00680,-0.22001,-6.17729
132.09998,-0.22017,-6.31566
132.20000,-0.22034,-6.42863
132.30000,-0.22050,-6.57461
132.40000,-0.22066,-6.67991
132.50000,-0.22085,-6.85636
132.59998,-0.22102,-6.95042
132.70000,-0.22117,-7.05722
132.80000,-0.22134,-7.16775
132.90000,-0.22150,-7.28137
133.00000,-0.22168,-7.39501
133.08480,-0.22182,-7.49697
133.09998,-0.22184,-7.50920
133.20000,-0.22201,-7.64244
133.30000,-0.22217,-7.76034
133.40000,-0.22234,-7.91191
133.50000,-0.22251,-8.06848
133.59998,-0.22267,-8.20885
133.70000,-0.22284,-8.33732
133.80000,-0.22300,-8.48337
133.90000,-0.22318,-8.61258
133.95480,-0.22326,-8.66710
134.00000,-0.22335,-8.76180
134.09998,-0.22351,-8.87503
134.20000,-0.22368,-9.01096
134.30000,-0.22385,-9.14624
134.40000,-0.22400,-9.27762
134.50000,-0.22417,-9.44700
134.59998,-0.22434,-9.58131
134.70000,-0.22451,-9.77670
134.76580,-0.22462,-9.88761
134.80000,-0.22468,-9.95075
134.90000,-0.22484,-10.10618
135.00000,-0.22502,-10.27458
135.09998,-0.22519,-10.40117
135.20000,-0.22535,-10.56056
135.30000,-0.22551,-10.67840
135.40000,-0.22569,-10.84433
135.50000,-0.22584,-10.97194
135.59998,-0.22600,-11.11368
135.63480,-0.22607,-11.18051
135.70000,-0.22617,-11.29799
135.80000,-0.22634,-11.46718
135.90000,-0.22652,-11.68290
136.00000,-0.22667,-11.83033
136.09998,-0.22685,-12.02304
136.20000,-0.22701,-12.15623
136.30000,-0.22719,-12.33660
136.40000,-0.22736,-12.47114
136.40380,-0.22736,-12.47783
136.50000,-0.22751,-12.61705
136.59998,-0.22769,-12.77293
136.70000,-0.22784,-12.92375
136.80000,-0.22802,-13.07730
136.90000,-0.22818,-13.24199
137.00000,-0.22834,-13.42265
137.09998,-0.22850,-13.59831
137.13280,-0.22855,-13.66430
137.20000,-0.22868,-13.83980
137.30000,-0.22884,-13.97428
137.40000,-0.22901,-14.17136
137.50000,-0.22919,-14.31626
137.59998,-0.22935,-14.47838
137.70000,-0.22949,-14.59187
137.80000,-0.22969,-14.80386
137.83680,-0.22975,-14.83862
137.90000,-0.22985,-14.95049
138.00000,-0.23000,-15.10878
138.09998,-0.23017,-15.31198
138.20000,-0.23035,-15.49390
138.30000,-0.23051,-15.70210
138.40000,-0.23068,-15.88381
138.50000,-0.23086,-16.06864
138.56480,-0.23095,-16.14716
138.59998,-0.23101,-16.22172
138.70000,-0.23118,-16.39124
138.80000,-0.23134,-16.54776
138.90000,-0.23151,-16.74324
139.00000,-0.23168,-16.92596
139.09998,-0.23184,-17.11097
139.20000,-0.23200,-17.27393
139.30000,-0.23216,-17.46717
139.30680,-0.23217,-17.48209
139.40000,-0.23233,-17.66611
139.50000,-0.23250,-17.90044
139.59998,-0.23267,-18.11653
139.70000,-0.23284,-18.31334
139.80000,-0.23301,-18.50686
139.86480,-0.23311,-18.63180
139.90000,-0.23317,-18.69687
140.00000,-0.23334,-18.86580
140.09998,-0.23350,-19.06097
140.20000,-0.23367,-19.23634
140.30000,-0.23384,-19.44232
140.40000,-0.23399,-19.61253
140.50000,-0.23417,-19.81464
140.51280,-0.23419,-19.82966
140.59998,-0.23433,-20.05801
140.70000,-0.23451,-20.28444
140.80000,-0.23467,-20.52089
140.90000,-0.23483,-20.68419
141.00000,-0.23501,-20.93242
141.09998,-0.23517,-21.08448
141.12480,-0.23521,-21.11537
141.20000,-0.23534,-21.30394
141.30000,-0.23551,-21.48011
141.40000,-0.23567,-21.66077
141.50000,-0.23583,-21.86355
141.59998,-0.23600,-22.06529
141.70000,-0.23616,-22.26681
141.77180,-0.23627,-22.38974
141.80000,-0.23631,-22.47288
141.90000,-0.23651,-22.77298
142.00000,-0.23667,-23.01951
142.09998,-0.23684,-23.25104
142.20000,-0.23700,-23.43937
142.30000,-0.23717,-23.65155
142.34180,-0.23724,-23.73882
142.40000,-0.23735,-23.85448
142.50000,-0.23751,-24.06624
142.59998,-0.23767,-24.25121
142.70000,-0.23783,-24.44571
142.80000,-0.23800,-24.67428
142.90000,-0.23816,-24.87703
142.90080,-0.23816,-24.87982
143.00000,-0.23833,-25.15503
143.09998,-0.23851,-25.42403
143.20000,-0.23867,-25.65482
143.30000,-0.23884,-25.89898
143.38080,-0.23898,-26.05680
143.40000,-0.23901,-26.12469
143.50000,-0.23918,-26.37677
143.59998,-0.23934,-26.54009
143.70000,-0.23950,-26.80129
143.80000,-0.23968,-26.99034
143.90000,-0.23984,-27.22799
143.99280,-0.23999,-27.38898
144.00000,-0.24000,-27.41793
144.09998,-0.24017,-27.66195
144.20000,-0.24033,-27.94034
144.30000,-0.24050,-28.18780
144.40000,-0.24067,-28.50870
144.44680,-0.24075,-28.59669
144.50000,-0.24085,-28.73932
144.59998,-0.24101,-28.98967
144.70000,-0.24117,-29.17232
144.80000,-0.24135,-29.42607
144.90000,-0.24150,-29.59660
145.00000,-0.24167,-29.82246
145.03080,-0.24172,-29.88599
145.09998,-0.24184,-30.04951
145.20000,-0.24200,-30.27245
145.30000,-0.24218,-30.53010
145.40000,-0.24233,-30.76879
145.50000,-0.24251,-31.06016
145.54780,-0.24259,-31.20403
145.59998,-0.24267,-31.32822
145.70000,-0.24284,-31.56852
145.80000,-0.24301,-31.78663
145.90000,-0.24317,-32.00349
146.00000,-0.24334,-32.20595
146.08180,-0.24347,-32.37653
146.09998,-0.24350,-32.43336
146.20000,-0.24366,-32.62177
146.30000,-0.24384,-32.87289
146.40000,-0.24400,-33.09559
146.50000,-0.24418,-33.35129
146.59998,-0.24433,-33.60144
146.61280,-0.24435,-33.61893
146.70000,-0.24450,-33.86306
146.80000,-0.24466,-34.14027
146.90000,-0.24484,-34.38395
147.00000,-0.24501,-34.62595
147.09998,-0.24516,-34.83812
147.11780,-0.24520,-34.84799
147.20000,-0.24534,-35.03711
147.30000,-0.24551,-35.28844
147.40000,-0.24567,-35.47116
147.50000,-0.24584,-35.71870
147.59998,-0.24600,-35.91217
147.67880,-0.24613,-36.11957
147.70000,-0.24616,-36.17062
147.80000,-0.24633,-36.44763
147.90000,-0.24650,-36.70299
148.00000,-0.24667,-36.99219
148.09998,-0.24684,-37.23673
148.18480,-0.24698,-37.42326
148.20000,-0.24700,-37.47203
148.30000,-0.24717,-37.68284
148.40000,-0.24734,-37.92302
148.50000,-0.24751,-38.11722
148.59998,-0.24767,-38.34250
148.70000,-0.24783,-38.54464
148.75580,-0.24793,-38.68143
148.80000,-0.24800,-38.81251
148.90000,-0.24816,-39.02859
149.00000,-0.24833,-39.31368
149.09998,-0.24850,-39.58073
149.20000,-0.24867,-39.86024
149.20580,-0.24868,-39.86944
149.30000,-0.24884,-40.12733
149.40000,-0.24900,-40.31600
149.50000,-0.24916,-40.55438
149.59998,-0.24933,-40.76651
149.70000,-0.24949,-40.99239
149.76380,-0.24959,-41.11075
149.80000,-0.24967,-41.21124
149.90000,-0.24983,-41.44925
150.00000,-0.24999,-41.69203
150.09998,-0.25016,-41.94745
150.20000,-0.25033,-42.24788
150.24080,-0.25040,-42.30054
150.30000,-0.25049,-42.51708
150.40000,-0.25066,-42.80417
150.50000,-0.25083,-43.07817
150.59998,-0.25100,-43.30950
150.70000,-0.25118,-43.57110
150.71880,-0.25121,-43.61733
150.80000,-0.25133,-43.76036
150.90000,-0.25149,-44.00663
151.00000,-0.25167,-44.22365
151.09998,-0.25183,-44.47592
151.20000,-0.25200,-44.71885
151.30000,-0.25215,-44.97344
151.30580,-0.25216,-44.97718
151.40000,-0.25233,-45.28338
151.50000,-0.25250,-45.57670
151.59998,-0.25266,-45.88452
151.70000,-0.25283,-46.14830
151.71580,-0.25286,-46.18341
151.80000,-0.25300,-46.40392
151.90000,-0.25317,-46.62757
152.00000,-0.25334,-46.88022
152.09998,-0.25350,-47.07682
152.20000,-0.25367,-47.34111
152.21778,-0.25369,-47.35490
152.30000,-0.25383,-47.54680
152.40000,-0.25399,-47.81966
152.50000,-0.25416,-48.06273
152.59998,-0.25432,-48.35473
152.69280,-0.25448,-48.60228
152.70000,-0.25449,-48.63582
152.80000,-0.25466,-48.92400
152.90000,-0.25483,-49.20252
153.00000,-0.25500,-49.42188
153.09998,-0.25517,-49.66880
153.16780,-0.25528,-49.84198
153.20000,-0.25534,-49.87801
153.30000,-0.25550,-50.12362
153.40000,-0.25567,-50.34936
153.50000,-0.25583,-50.56726
153.59998,-0.25600,-50.82276
153.70000,-0.25617,-51.07166
153.70180,-0.25617,-51.07633
153.80000,-0.25633,-51.37309
153.90000,-0.25650,-51.65762
154.00000,-0.25667,-51.95739
154.09998,-0.25684,-52.22754
154.15080,-0.25692,-52.33442
154.20000,-0.25701,-52.45264
154.30000,-0.25717,-52.68922
154.40000,-0.25734,-52.91566
154.50000,-0.25750,-53.13909
154.59998,-0.25767,-53.38833
154.70000,-0.25783,-53.62567
154.74980,-0.25791,-53.73335
154.80000,-0.25800,-53.87082
154.90000,-0.25817,-54.12141
155.00000,-0.25833,-54.42781
155.09998,-0.25850,-54.72656
155.17080,-0.25862,-54.91355
155.20000,-0.25867,-55.00075
155.30000,-0.25884,-55.29136
155.40000,-0.25901,-55.52939
155.50000,-0.25918,-55.77685
155.59998,-0.25934,-56.01079
155.64980,-0.25943,-56.13015
155.70000,-0.25950,-56.22787
155.80000,-0.25968,-56.49197
155.90000,-0.25984,-56.70846
156.00000,-0.26001,-56.97388
156.09998,-0.26017,-57.23516
156.12380,-0.26021,-57.29463
156.20000,-0.26034,-57.50849
156.30000,-0.26050,-57.83877
156.40000,-0.26067,-58.11124
156.50000,-0.26084,-58.43278
156.54580,-0.26092,-58.52526
156.59998,-0.26101,-58.65669
156.70000,-0.26118,-58.93605
156.80000,-0.26134,-59.15130
156.90000,-0.26151,-59.39312
157.00000,-0.26168,-59.63268
157.09998,-0.26184,-59.85649
157.10480,-0.26184,-59.86629
157.20000,-0.26201,-60.12568
157.30000,-0.26217,-60.38371
157.40000,-0.26233,-60.67754
157.50000,-0.26250,-60.95431
157.58180,-0.26264,-61.19752
157.59998,-0.26267,-61.24501
157.70000,-0.26285,-61.49116
157.80000,-0.26301,-61.75078
157.90000,-0.26318,-61.99161
158.00000,-0.26334,-62.22891
158.09880,-0.26350,-62.45495
158.09998,-0.26351,-62.45631
158.20000,-0.26368,-62.71914
158.30000,-0.26384,-62.93652
158.40000,-0.26400,-63.15262
158.50000,-0.26417,-63.45624
158.54680,-0.26424,-63.55264
158.59998,-0.26433,-63.72523
158.70000,-0.26450,-64.06186
158.80000,-0.26466,-64.33685
158.90000,-0.26484,-64.63513
158.96880,-0.26495,-64.77419
159.00000,-0.26500,-64.89407
159.09998,-0.26518,-65.10361
159.20000,-0.26534,-65.33281
159.30000,-0.26550,-65.52356
159.40000,-0.26567,-65.75380
159.50000,-0.26583,-65.97850
159.52580,-0.26587,-66.07018
159.59998,-0.26600,-66.23451
159.70000,-0.26616,-66.48934
159.80000,-0.26633,-66.78171
159.90000,-0.26650,-67.09532
160.00000,-0.26666,-67.37521
160.00080,-0.26666,-67.37597
160.09998,-0.26683,-67.67421
160.20000,-0.26700,-67.90642
160.30000,-0.26717,-68.16848
160.40000,-0.26734,-68.40078
160.50000,-0.26750,-68.63550
160.53280,-0.26756,-68.69201
160.59998,-0.26767,-68.87410
160.70000,-0.26783,-69.10557
160.80000,-0.26800,-69.35777
160.90000,-0.26816,-69.62380
161.00000,-0.26833,-69.91180
161.01980,-0.26837,-69.96643
161.09998,-0.26850,-70.21430
161.20000,-0.26866,-70.51286
161.30000,-0.26884,-70.79225
161.40000,-0.26900,-71.03676
161.44680,-0.26908,-71.13213
161.50000,-0.26917,-71.25767
161.59998,-0.26934,-71.50156
161.70000,-0.26950,-71.70304
161.80000,-0.26967,-71.94136
161.90000,-0.26983,-72.15152
162.00000,-0.27000,-72.36964
162.00280,-0.27001,-72.37262
162.07580,-0.27013,-72.50636
162.07680,-0.27014,-72.37952
162.07780,-0.27016,-72.10574
162.07880,-0.27018,-71.65990
162.07980,-0.27020,-71.03879
162.08080,-0.27022,-70.24799
162.08180,-0.27024,-69.29589
162.08280,-0.27025,-68.19158
162.08380,-0.27026,-66.94658
162.08480,-0.27027,-65.57735
162.08580,-0.27028,-64.10246
162.08680,-0.27029,-62.53792
162.08780,-0.27030,-60.89636
162.08880,-0.27030,-59.18863
162.08980,-0.27031,-57.42605
162.09080,-0.27031,-55.62208
162.09180,-0.27032,-53.79131
162.09278,-0.27033,-51.94630
162.09380,-0.27033,-50.09585
162.09480,-0.27034,-48.24546
162.09580,-0.27035,-46.39878
162.09680,-0.27037,-44.55999
162.09780,-0.27038,-42.73547
162.09880,-0.27039,-40.93274
162.09980,-0.27041,-39.15807
162.09998,-0.27041,-39.15807
162.10080,-0.27042,-37.41585
162.10180,-0.27044,-35.70902
162.10280,-0.27046,-34.03942
162.10380,-0.27048,-32.40873
162.10480,-0.27050,-30.81957
162.10580,-0.27052,-29.27510
162.10680,-0.27054,-27.77783
162.10780,-0.27056,-26.32923
162.10880,-0.27058,-24.93003
162.10980,-0.27059,-23.58068
162.11080,-0.27061,-22.28229
162.11180,-0.27063,-21.03716
162.11280,-0.27065,-19.84787
162.11380,-0.27066,-18.71604
162.11480,-0.27068,-17.64179
162.11580,-0.27070,-16.62377
162.11680,-0.27071,-15.65990
162.11780,-0.27073,-14.74849
162.11880,-0.27074,-13.88890
162.11980,-0.27076,-13.08078
162.12078,-0.27078,-12.32304
162.12180,-0.27079,-11.61341
162.12280,-0.27080,-10.94890
162.12380,-0.27082,-10.32675
162.12480,-0.27083,-9.74519
162.12580,-0.27084,-9.20347
162.12680,-0.27086,-8.70123
162.13280,-0.27091,-6.46976
162.13680,-0.27094,-5.64234
162.14878,-0.27098,-4.84020
162.15380,-0.27099,-5.06709
162.15580,-0.27099,-5.18213
162.16380,-0.27099,-5.59195
162.17080,-0.27098,-6.03445
162.18180,-0.27096,-6.43936
162.18680,-0.27095,-6.59873
162.20000,-0.27094,-6.63071
162.21480,-0.27092,-6.77408
162.28080,-0.27089,-6.96139
162.30000,-0.27089,-6.55963
162.32180,-0.27089,-6.52239
162.36480,-0.27087,-7.18623
162.40000,-0.27087,-6.61047
162.50000,-0.27087,-6.70971
162.56280,-0.27088,-7.01268
162.58680,-0.27090,-7.04074
162.59998,-0.27091,-6.85609
162.70000,-0.27097,-7.00311
162.75480,-0.27106,-6.98662
162.80000,-0.27115,-7.29812
162.90000,-0.27137,-7.60620
163.00000,-0.27158,-7.89129
163.09998,-0.27178,-8.11412
163.20000,-0.27197,-8.34147
163.29480,-0.27213,-8.51599
163.30000,-0.27214,-8.56006
163.40000,-0.27232,-8.76744
163.50000,-0.27249,-9.00450
163.59998,-0.27266,-9.22888
163.70000,-0.27283,-9.45248
163.80000,-0.27300,-9.63166
163.90000,-0.27317,-9.82133
163.91380,-0.27319,-9.89493
164.00000,-0.27333,-10.01146
164.09998,-0.27350,-10.20736
164.20000,-0.27367,-10.39436
164.30000,-0.27383,-10.60111
164.40000,-0.27400,-10.80877
164.50000,-0.27416,-11.06959
164.56380,-0.27427,-11.19464
164.59998,-0.27433,-11.28772
164.70000,-0.27450,-11.51775
164.80000,-0.27466,-11.69019
164.90000,-0.27484,-11.89299
165.00000,-0.27500,-12.09479
165.09998,-0.27517,-12.25942
165.15480,-0.27526,-12.33113
165.20000,-0.27534,-12.45254
165.30000,-0.27550,-12.60822
165.40000,-0.27567,-12.78213
165.50000,-0.27584,-12.90877
