Text Inputs : Specimen label,"2.165"
General : Start Date,1/28/2011 12:46 PM
General : End Date,1/28/2011 12:48 PM
Maximum Compressive load : Maximum Compressive load,9.57026,kgf
Maximum Compressive load : Compressive stress at Maximum Compressive load,1.00370,MPa

Time,Extension,Load
(sec),(mm),(N)
0.00000,-0.00007,-0.01589
0.00180,-0.00007,-0.01579
0.10000,-0.00007,-0.00149
0.20000,-0.00011,-0.00090
0.30000,-0.00025,-0.00189
0.40000,-0.00049,0.00294
0.50000,-0.00073,0.00074
0.60000,-0.00095,0.00082
0.70000,-0.00114,-0.00063
0.80000,-0.00133,-0.00132
0.90000,-0.00150,-0.00288
1.00000,-0.00168,0.00163
1.10000,-0.00184,0.00133
1.20000,-0.00201,-0.00205
1.30000,-0.00218,-0.00131
1.40000,-0.00234,0.00073
1.50000,-0.00250,-0.00300
1.60000,-0.00267,-0.00099
1.70000,-0.00284,-0.00051
1.80000,-0.00301,-0.00492
1.90000,-0.00317,-0.00356
2.00000,-0.00334,0.00114
2.10000,-0.00351,0.00018
2.20000,-0.00368,-0.00077
2.30000,-0.00384,0.00009
2.40000,-0.00401,-0.00075
2.50000,-0.00417,-0.00248
2.60000,-0.00433,-0.00355
2.70000,-0.00451,-0.00537
2.80000,-0.00467,-0.00194
2.90000,-0.00484,-0.00266
3.00000,-0.00501,-0.00122
3.10000,-0.00518,0.00078
3.20000,-0.00535,-0.00089
3.30000,-0.00551,0.00065
3.40000,-0.00568,-0.00340
3.50000,-0.00585,-0.00283
3.60000,-0.00602,-0.00573
3.70000,-0.00619,-0.00479
3.80000,-0.00635,0.00031
3.90000,-0.00652,-0.00363
4.00000,-0.00669,-0.00121
4.10000,-0.00686,-0.00085
4.20000,-0.00703,-0.00103
4.30000,-0.00720,-0.00100
4.40000,-0.00737,-0.00224
4.50000,-0.00753,-0.00813
4.60000,-0.00769,-0.00255
4.70000,-0.00786,-0.00003
4.80000,-0.00803,-0.00292
4.90000,-0.00819,-0.00010
5.00000,-0.00836,0.00231
5.10000,-0.00853,-0.00323
5.20000,-0.00870,0.00050
5.30000,-0.00887,-0.00533
5.40000,-0.00904,-0.00623
5.50000,-0.00920,-0.00483
5.60000,-0.00937,-0.00171
5.70000,-0.00953,0.00224
5.80000,-0.00970,-0.00184
5.90000,-0.00987,-0.00249
6.00000,-0.01004,-0.00236
6.10000,-0.01020,-0.00068
6.20000,-0.01037,-0.00053
6.30000,-0.01054,-0.00850
6.40000,-0.01070,-0.00192
6.50000,-0.01087,-0.00098
6.60000,-0.01103,-0.00042
6.70000,-0.01120,-0.00074
6.80000,-0.01136,0.00023
6.90000,-0.01153,0.00009
7.00000,-0.01170,-0.00346
7.10000,-0.01186,0.00002
7.20000,-0.01203,-0.00398
7.30000,-0.01219,-0.00659
7.40000,-0.01236,0.00042
7.50000,-0.01253,-0.00111
7.60000,-0.01270,0.00008
7.70000,-0.01287,-0.00178
7.80000,-0.01304,0.00362
7.90000,-0.01320,-0.00372
8.00000,-0.01337,-0.00373
8.10000,-0.01353,-0.00791
8.20000,-0.01370,-0.00087
8.30000,-0.01386,0.00048
8.40000,-0.01403,0.00208
8.50000,-0.01419,0.00074
8.60000,-0.01436,-0.00219
8.70000,-0.01452,-0.00621
8.80000,-0.01469,0.00149
8.90000,-0.01486,-0.00292
9.00000,-0.01502,-0.00761
9.10000,-0.01519,-0.00282
9.20000,-0.01535,0.00012
9.30000,-0.01552,-0.00273
9.40000,-0.01569,-0.00375
9.50000,-0.01585,0.00000
9.60000,-0.01602,-0.00209
9.70000,-0.01618,-0.00369
9.80000,-0.01635,0.00061
9.90000,-0.01652,-0.00698
10.00000,-0.01668,-0.00167
10.10000,-0.01686,0.00190
10.20000,-0.01702,-0.00389
10.30000,-0.01719,-0.00259
10.40000,-0.01735,-0.00155
10.50000,-0.01752,-0.00210
10.60000,-0.01769,0.00089
10.70000,-0.01785,-0.00200
10.80000,-0.01802,-0.00763
10.90000,-0.01818,-0.00407
11.00000,-0.01835,0.00107
11.10000,-0.01852,-0.00277
11.20000,-0.01868,0.00036
11.30000,-0.01886,0.00076
11.40000,-0.01902,-0.00059
11.50000,-0.01919,-0.00079
11.60000,-0.01936,0.00015
11.70000,-0.01952,-0.00635
11.80000,-0.01969,-0.00275
11.90000,-0.01985,0.00081
12.00000,-0.02002,-0.00486
12.10000,-0.02018,-0.00330
12.20000,-0.02035,-0.00134
12.30000,-0.02052,-0.00103
12.40000,-0.02069,-0.00311
12.50000,-0.02086,-0.00473
12.60000,-0.02102,-0.00888
12.70000,-0.02120,-0.00352
12.80000,-0.02136,-0.00484
12.90000,-0.02152,-0.00093
13.00000,-0.02169,-0.00022
13.10000,-0.02185,-0.00293
13.20000,-0.02202,0.00179
13.30000,-0.02219,-0.00274
13.40000,-0.02235,-0.00558
13.50000,-0.02252,-0.00238
13.60000,-0.02269,-0.00290
13.70000,-0.02286,-0.00066
13.80000,-0.02302,-0.00443
13.90000,-0.02320,-0.00063
14.00000,-0.02336,-0.00342
14.10000,-0.02352,-0.00032
14.20000,-0.02369,-0.00481
14.30000,-0.02385,-0.00267
14.40000,-0.02402,-0.00373
14.50000,-0.02419,-0.00483
14.60000,-0.02436,0.00102
14.70000,-0.02452,-0.00122
14.80000,-0.02469,0.00109
14.90000,-0.02486,-0.00304
15.00000,-0.02503,-0.00088
15.10000,-0.02520,-0.00019
15.20000,-0.02536,-0.00290
15.30000,-0.02553,-0.00504
15.40000,-0.02569,-0.00067
15.50000,-0.02585,0.00153
15.60000,-0.02602,0.00279
15.70000,-0.02619,-0.00067
15.80000,-0.02636,-0.00191
15.90000,-0.02652,-0.00282
16.00000,-0.02669,-0.00254
16.10000,-0.02686,-0.00127
16.20000,-0.02703,-0.00422
16.30000,-0.02720,-0.00175
16.40000,-0.02736,-0.00002
16.50000,-0.02753,-0.00032
16.60000,-0.02769,-0.00215
16.70000,-0.02786,-0.00346
16.80000,-0.02803,0.00093
16.90000,-0.02819,-0.00074
17.00000,-0.02836,-0.00205
17.10000,-0.02853,0.00200
17.20000,-0.02869,0.00488
17.30000,-0.02886,-0.00589
17.40000,-0.02902,-0.00926
17.50000,-0.02920,-0.00364
17.60000,-0.02936,-0.00182
17.70000,-0.02952,0.00482
17.80000,-0.02969,-0.00390
17.90000,-0.02985,-0.00286
18.00000,-0.03002,-0.00844
18.10000,-0.03018,-0.00196
18.20000,-0.03036,0.00217
18.30000,-0.03052,-0.00430
18.40000,-0.03069,-0.00071
18.50000,-0.03086,-0.00266
18.60000,-0.03102,-0.00082
18.70000,-0.03119,-0.00020
18.80000,-0.03135,-0.00392
18.90000,-0.03152,-0.00805
19.00000,-0.03169,-0.00594
19.10000,-0.03185,0.00047
19.20000,-0.03202,-0.00390
19.30000,-0.03218,-0.00446
19.40000,-0.03235,-0.00147
19.50000,-0.03251,-0.00384
19.60000,-0.03268,0.00225
19.70000,-0.03285,-0.00632
19.80000,-0.03302,-0.00304
19.90000,-0.03319,-0.00157
20.00000,-0.03335,-0.00278
20.10000,-0.03352,-0.00216
20.20000,-0.03369,-0.00083
20.30000,-0.03385,-0.00176
20.40000,-0.03402,-0.00091
20.50000,-0.03418,0.00180
20.60000,-0.03435,-0.00489
20.70000,-0.03451,-0.00356
20.80000,-0.03468,-0.00208
20.90000,-0.03485,-0.00622
21.00000,-0.03501,-0.00134
21.10000,-0.03519,0.00099
21.20000,-0.03535,-0.00258
21.30000,-0.03552,-0.00428
21.40000,-0.03569,-0.00011
21.50000,-0.03585,-0.00386
21.60000,-0.03602,-0.00333
21.70000,-0.03618,-0.00237
21.80000,-0.03635,0.00319
21.90000,-0.03651,-0.00350
22.00000,-0.03668,0.00193
22.10000,-0.03685,-0.00044
22.20000,-0.03701,-0.00240
22.30000,-0.03719,-0.00077
22.40000,-0.03735,-0.00268
22.50000,-0.03752,-0.00362
22.60000,-0.03768,-0.00082
22.70000,-0.03785,0.00093
22.80000,-0.03802,-0.00091
22.90000,-0.03818,-0.00253
23.00000,-0.03835,-0.00223
23.10000,-0.03852,-0.00032
23.20000,-0.03869,0.00031
23.30000,-0.03886,-0.00301
23.40000,-0.03902,-0.00441
23.50000,-0.03920,0.00023
23.60000,-0.03936,0.00017
23.70000,-0.03953,-0.00224
23.80000,-0.03969,-0.00012
23.90000,-0.03986,-0.00260
24.00000,-0.04002,0.00024
24.10000,-0.04018,-0.00158
24.20000,-0.04035,-0.00282
24.30000,-0.04052,-0.00368
24.40000,-0.04069,-0.00037
24.50000,-0.04085,-0.00164
24.60000,-0.04102,-0.00382
24.70000,-0.04119,-0.00229
24.80000,-0.04135,-0.00333
24.90000,-0.04152,-0.00233
25.00000,-0.04169,-0.00086
25.10000,-0.04185,-0.00603
25.20000,-0.04202,-0.00267
25.30000,-0.04218,-0.00098
25.40000,-0.04235,-0.00180
25.50000,-0.04252,-0.00175
25.60000,-0.04269,0.00041
25.70000,-0.04286,0.00377
25.80000,-0.04302,0.00085
25.90000,-0.04319,-0.00124
26.00000,-0.04335,-0.00318
26.10000,-0.04352,-0.00497
26.20000,-0.04369,-0.00147
26.30000,-0.04385,0.00004
26.40000,-0.04402,0.00051
26.50000,-0.04418,0.00037
26.60000,-0.04435,-0.00525
26.70000,-0.04451,0.00085
26.80000,-0.04469,-0.00247
26.90000,-0.04486,-0.00130
27.00000,-0.04502,-0.00198
27.10000,-0.04519,0.00231
27.20000,-0.04535,-0.00083
27.30000,-0.04552,-0.00399
27.40000,-0.04569,-0.00241
27.50000,-0.04585,0.00115
27.60000,-0.04602,-0.00252
27.70000,-0.04618,-0.00121
27.80000,-0.04636,-0.00157
27.90000,-0.04652,-0.00209
28.00000,-0.04669,-0.00194
28.10000,-0.04686,-0.00057
28.20000,-0.04702,-0.00196
28.30000,-0.04719,0.00339
28.40000,-0.04735,0.00242
28.50000,-0.04752,-0.00005
28.60000,-0.04769,-0.00529
28.70000,-0.04785,-0.00258
28.80000,-0.04802,-0.00431
28.90000,-0.04818,-0.00235
29.00000,-0.04835,0.00145
29.10000,-0.04851,-0.00300
29.20000,-0.04869,0.00010
29.30000,-0.04885,-0.00107
29.40000,-0.04902,0.00069
29.50000,-0.04919,-0.00348
29.60000,-0.04935,-0.00151
29.70000,-0.04952,-0.00317
29.80000,-0.04968,0.00102
29.90000,-0.04986,-0.00152
30.00000,-0.05002,0.00038
30.10000,-0.05018,0.00051
30.20000,-0.05035,-0.00277
30.30000,-0.05052,-0.00099
30.40000,-0.05069,-0.00166
30.50000,-0.05085,-0.00387
30.60000,-0.05102,-0.00525
30.70000,-0.05119,-0.00379
30.80000,-0.05135,0.00174
30.90000,-0.05152,0.00234
31.00000,-0.05168,-0.00077
31.10000,-0.05185,-0.00012
31.20000,-0.05201,0.00069
31.30000,-0.05218,-0.00031
31.40000,-0.05235,-0.00045
31.50000,-0.05251,-0.00178
31.60000,-0.05269,-0.00123
31.70000,-0.05285,-0.00296
31.80000,-0.05302,0.00351
31.90000,-0.05319,-0.00458
32.00000,-0.05335,-0.00009
32.10000,-0.05352,-0.00363
32.20000,-0.05369,-0.00068
32.30000,-0.05386,-0.00385
32.40000,-0.05402,-0.00345
32.50000,-0.05418,0.00136
32.60000,-0.05435,0.00094
32.70000,-0.05451,0.00030
32.80000,-0.05469,0.00047
32.90000,-0.05485,0.00064
33.00000,-0.05502,-0.00077
33.10000,-0.05519,-0.00286
33.20000,-0.05536,-0.00179
33.30000,-0.05553,-0.00520
33.40000,-0.05569,0.00010
33.50000,-0.05586,0.00074
33.60000,-0.05602,-0.00034
33.70000,-0.05618,-0.00172
33.80000,-0.05635,-0.00300
33.90000,-0.05652,-0.00046
34.00000,-0.05669,0.00174
34.10000,-0.05685,-0.00101
34.20000,-0.05702,-0.00058
34.30000,-0.05719,0.00029
34.40000,-0.05735,-0.00079
34.50000,-0.05752,-0.00026
34.60000,-0.05769,-0.00427
34.70000,-0.05786,0.00090
34.80000,-0.05802,-0.00181
34.90000,-0.05819,0.00085
35.00000,-0.05836,-0.00489
35.10000,-0.05852,-0.00233
35.20000,-0.05869,0.00137
35.30000,-0.05886,-0.00211
35.40000,-0.05903,0.00323
35.50000,-0.05919,-0.00283
35.60000,-0.05935,0.00290
35.70000,-0.05953,-0.00128
35.80000,-0.05969,-0.00286
35.90000,-0.05986,-0.00467
36.00000,-0.06002,-0.00451
36.10000,-0.06019,0.00189
36.20000,-0.06036,-0.00161
36.30000,-0.06052,-0.00279
36.40000,-0.06069,0.00139
36.50000,-0.06086,0.00050
36.60000,-0.06103,0.00164
36.70000,-0.06119,0.00153
36.80000,-0.06136,-0.00303
36.90000,-0.06153,-0.00309
37.00000,-0.06169,-0.00073
37.10000,-0.06186,-0.00151
37.20000,-0.06202,-0.00289
37.30000,-0.06219,0.00190
37.40000,-0.06236,0.00003
37.50000,-0.06252,0.00184
37.60000,-0.06270,-0.00120
37.70000,-0.06286,-0.00268
37.80000,-0.06303,-0.00210
37.90000,-0.06319,-0.00354
38.00000,-0.06336,-0.00062
38.10000,-0.06353,-0.00272
38.20000,-0.06369,0.00260
38.30000,-0.06386,0.00033
38.40000,-0.06402,-0.00086
38.50000,-0.06419,-0.00522
38.60000,-0.06436,-0.00348
38.70000,-0.06452,-0.00281
38.80000,-0.06469,0.00273
38.90000,-0.06485,-0.00139
39.00000,-0.06503,-0.00297
39.10000,-0.06519,-0.00284
39.20000,-0.06535,0.00035
39.30000,-0.06552,0.00111
39.40000,-0.06568,-0.00292
39.50000,-0.06585,-0.00348
39.60000,-0.06602,-0.00507
39.70000,-0.06618,0.00010
39.80000,-0.06635,0.00240
39.90000,-0.06651,-0.00064
40.00000,-0.06668,-0.00209
40.10000,-0.06686,0.00222
40.20000,-0.06702,-0.00076
40.30000,-0.06718,-0.00312
40.40000,-0.06735,-0.00388
40.50000,-0.06752,-0.00224
40.60000,-0.06769,0.00100
40.70000,-0.06785,0.00061
40.80000,-0.06802,0.00255
40.90000,-0.06819,-0.00348
41.00000,-0.06835,-0.00064
41.10000,-0.06852,-0.00166
41.20000,-0.06868,-0.00128
41.30000,-0.06885,-0.00683
41.40000,-0.06902,-0.00657
41.50000,-0.06919,-0.00169
41.60000,-0.06935,0.00048
41.70000,-0.06952,0.00111
41.80000,-0.06968,-0.00104
41.90000,-0.06985,0.00031
42.00000,-0.07001,-0.00407
42.10000,-0.07018,-0.00152
42.20000,-0.07035,-0.00620
42.30000,-0.07051,-0.00488
42.40000,-0.07069,0.00086
42.50000,-0.07085,-0.00177
42.60000,-0.07102,-0.00035
42.70000,-0.07118,0.00036
42.80000,-0.07135,-0.00084
42.90000,-0.07152,-0.00303
43.00000,-0.07168,-0.00138
43.10000,-0.07185,-0.00337
43.20000,-0.07201,-0.00579
43.30000,-0.07218,-0.00130
43.40000,-0.07235,-0.00157
43.50000,-0.07251,-0.00174
43.60000,-0.07269,0.00035
43.70000,-0.07285,0.00206
43.80000,-0.07302,0.00020
43.90000,-0.07319,0.00072
44.00000,-0.07336,-0.00816
44.10000,-0.07352,-0.00512
44.20000,-0.07368,-0.00205
44.30000,-0.07385,0.00073
44.40000,-0.07401,-0.00195
44.50000,-0.07419,-0.00055
44.60000,-0.07435,0.00037
44.70000,-0.07452,-0.00288
44.80000,-0.07469,-0.00135
44.90000,-0.07486,-0.00803
45.00000,-0.07503,-0.00646
45.10000,-0.07519,-0.00380
45.20000,-0.07536,-0.00252
45.30000,-0.07552,-0.00486
45.40000,-0.07568,-0.00684
45.50000,-0.07585,-0.00468
45.60000,-0.07602,-0.00335
45.70000,-0.07619,-0.00609
45.80000,-0.07635,-0.00888
45.90000,-0.07651,-0.01031
46.00000,-0.07668,-0.00149
46.10000,-0.07685,-0.00402
46.20000,-0.07702,-0.00744
46.30000,-0.07718,-0.00299
46.40000,-0.07735,-0.00392
46.50000,-0.07752,-0.00528
46.60000,-0.07768,-0.00942
46.70000,-0.07785,-0.00671
46.80000,-0.07801,-0.00943
46.90000,-0.07818,-0.00269
47.00000,-0.07835,-0.00468
47.10000,-0.07851,-0.00181
47.20000,-0.07869,-0.00371
47.30000,-0.07885,-0.00378
47.40000,-0.07902,-0.00556
47.50000,-0.07919,-0.00763
47.60000,-0.07935,-0.01144
47.70000,-0.07952,-0.00865
47.80000,-0.07969,-0.00236
47.90000,-0.07985,-0.00398
48.00000,-0.08001,-0.00582
48.10000,-0.08018,-0.00619
48.20000,-0.08034,-0.00113
48.30000,-0.08051,-0.00507
48.40000,-0.08068,-0.00442
48.50000,-0.08085,-0.00899
48.60000,-0.08102,-0.00774
48.70000,-0.08119,-0.00260
48.80000,-0.08135,-0.00263
48.90000,-0.08152,-0.00471
49.00000,-0.08168,-0.00090
49.10000,-0.08186,-0.00075
49.20000,-0.08201,-0.00649
49.30000,-0.08219,-0.00428
49.40000,-0.08235,-0.00913
49.50000,-0.08251,-0.00575
49.60000,-0.08269,-0.00492
49.70000,-0.08285,-0.00231
49.80000,-0.08303,-0.00588
49.90000,-0.08318,-0.00499
50.00000,-0.08335,-0.00404
50.10000,-0.08351,-0.00560
50.20000,-0.08369,-0.00654
50.30000,-0.08384,-0.00629
50.40000,-0.08401,-0.00747
50.50000,-0.08418,-0.00507
50.60000,-0.08434,-0.00566
50.70000,-0.08451,-0.00376
50.80000,-0.08468,-0.00381
50.90000,-0.08485,-0.00425
51.00000,-0.08502,-0.00715
51.10000,-0.08518,-0.00424
51.20000,-0.08535,-0.00981
51.30000,-0.08551,-0.00716
51.40000,-0.08568,-0.00370
51.50000,-0.08585,-0.00398
51.60000,-0.08601,-0.00478
51.70000,-0.08619,-0.00376
51.80000,-0.08634,-0.00527
51.90000,-0.08651,-0.00774
52.00000,-0.08668,-0.00435
52.10000,-0.08685,-0.00793
52.20000,-0.08702,-0.00934
52.30000,-0.08718,-0.00791
52.40000,-0.08736,-0.00413
52.50000,-0.08752,-0.00200
52.60000,-0.08769,-0.00478
52.70000,-0.08784,0.00114
52.80000,-0.08801,-0.00477
52.90000,-0.08818,-0.00680
53.00000,-0.08835,-0.01042
53.10000,-0.08851,-0.00793
53.20000,-0.08868,-0.00443
53.30000,-0.08884,-0.00405
53.40000,-0.08902,-0.00664
53.50000,-0.08920,-0.00083
53.60000,-0.08935,-0.00326
53.70000,-0.08952,-0.00566
53.80000,-0.08968,-0.00624
53.90000,-0.08985,-0.01010
54.00000,-0.09001,-0.00645
54.10000,-0.09018,0.00242
54.20000,-0.09035,-0.00171
54.30000,-0.09051,-0.00477
54.40000,-0.09068,-0.00454
54.50000,-0.09085,0.00068
54.60000,-0.09103,-0.00695
54.70000,-0.09119,-0.00693
54.80000,-0.09136,-0.00826
54.90000,-0.09152,-0.00633
55.00000,-0.09169,-0.00522
55.10000,-0.09185,-0.00279
55.20000,-0.09201,-0.00206
55.30000,-0.09218,-0.00827
55.40000,-0.09234,-0.00398
55.50000,-0.09251,-0.00539
55.60000,-0.09268,-0.00657
55.70000,-0.09285,-0.00910
55.80000,-0.09303,-0.00732
55.90000,-0.09318,-0.00436
56.00000,-0.09335,-0.00526
56.10000,-0.09352,-0.00365
56.20000,-0.09369,-0.00149
56.30000,-0.09385,-0.00398
56.40000,-0.09402,-0.00593
56.50000,-0.09419,-0.00469
56.60000,-0.09435,-0.00815
56.70000,-0.09452,-0.00640
56.80000,-0.09469,-0.00295
56.90000,-0.09486,-0.00118
57.00000,-0.09502,-0.00395
57.10000,-0.09519,-0.00387
57.20000,-0.09536,-0.00556
57.30000,-0.09552,-0.00685
57.40000,-0.09568,-0.00867
57.50000,-0.09585,-0.01220
57.60000,-0.09602,-0.00832
57.70000,-0.09619,-0.00579
57.80000,-0.09635,-0.00330
57.90000,-0.09652,-0.00566
58.00000,-0.09669,-0.00643
58.10000,-0.09686,-0.00523
58.20000,-0.09702,-0.00697
58.30000,-0.09719,-0.00732
58.40000,-0.09736,-0.01311
58.50000,-0.09753,-0.00904
58.60000,-0.09769,-0.00528
58.70000,-0.09786,-0.00672
58.80000,-0.09801,-0.00769
58.90000,-0.09818,-0.00832
59.00000,-0.09834,-0.00748
59.10000,-0.09851,-0.01048
59.20000,-0.09868,-0.01328
59.30000,-0.09885,-0.01546
59.40000,-0.09903,-0.01467
59.50000,-0.09919,-0.01312
59.60000,-0.09935,-0.01376
59.70000,-0.09952,-0.01382
59.80000,-0.09969,-0.01551
59.90000,-0.09985,-0.01301
60.00000,-0.10001,-0.00980
60.10000,-0.10018,-0.01163
60.20000,-0.10034,-0.01627
60.30000,-0.10051,-0.01644
60.40000,-0.10068,-0.01522
60.50000,-0.10085,-0.01287
60.60000,-0.10103,-0.01277
60.70000,-0.10118,-0.01533
60.80000,-0.10135,-0.02020
60.90000,-0.10152,-0.03788
61.00000,-0.10168,-0.04752
61.10000,-0.10185,-0.07432
61.20000,-0.10202,-0.08964
61.30000,-0.10218,-0.11248
61.40000,-0.10234,-0.13836
61.50000,-0.10251,-0.16734
61.60000,-0.10268,-0.19118
61.70000,-0.10285,-0.22168
61.80000,-0.10302,-0.24410
61.90000,-0.10319,-0.26816
62.00000,-0.10335,-0.29289
62.10000,-0.10351,-0.30701
62.20000,-0.10369,-0.33082
62.30000,-0.10385,-0.34601
62.40000,-0.10402,-0.36602
62.50000,-0.10418,-0.38626
62.60000,-0.10435,-0.41012
62.70000,-0.10452,-0.43398
62.80000,-0.10469,-0.45362
62.90000,-0.10486,-0.47245
63.00000,-0.10503,-0.48472
63.10000,-0.10519,-0.49694
63.20000,-0.10535,-0.50824
63.30000,-0.10552,-0.52765
63.40000,-0.10568,-0.53713
63.50000,-0.10585,-0.55041
63.60000,-0.10602,-0.56618
63.70000,-0.10619,-0.58170
63.80000,-0.10635,-0.59400
63.90000,-0.10652,-0.59749
64.00000,-0.10668,-0.60664
64.10000,-0.10686,-0.61636
64.20000,-0.10703,-0.62876
64.30000,-0.10719,-0.63604
64.40000,-0.10735,-0.64048
64.50000,-0.10753,-0.65805
64.60000,-0.10769,-0.66562
64.70000,-0.10785,-0.67673
64.80000,-0.10802,-0.68609
64.90000,-0.10818,-0.70382
65.00000,-0.10834,-0.72282
65.10000,-0.10852,-0.74198
65.20000,-0.10868,-0.75443
65.30000,-0.10885,-0.77648
65.40000,-0.10902,-0.79548
65.50000,-0.10919,-0.33875
65.60000,-0.10936,-0.37332
65.70000,-0.10952,-0.39335
65.79999,-0.10969,-0.41697
65.90000,-0.10985,-0.45183
66.00000,-0.11002,-0.47910
66.10000,-0.11018,-0.50315
66.20000,-0.11035,-0.53331
66.29999,-0.11052,-0.55626
66.40000,-0.11069,-0.57649
66.50000,-0.11086,-0.59930
66.60000,-0.11102,-0.60670
66.70000,-0.11119,-0.61472
66.79999,-0.11136,-0.62831
66.90000,-0.11152,-0.63383
67.00000,-0.11169,-0.63785
67.10000,-0.11186,-0.63658
67.20000,-0.11202,-0.64471
67.29999,-0.11218,-0.66020
67.40000,-0.11235,-0.66494
67.50000,-0.11252,-0.65123
67.60000,-0.11269,-0.63794
67.70000,-0.11285,-0.63388
67.79999,-0.11302,-0.64062
67.90000,-0.11319,-0.63461
68.00000,-0.11335,-0.63378
68.10000,-0.11351,-0.64549
68.20000,-0.11368,-0.65063
68.29999,-0.11385,-0.67068
68.40000,-0.11401,-0.68086
68.50000,-0.11418,-0.67216
68.60000,-0.11434,-0.66193
68.70000,-0.11452,-0.67207
68.79999,-0.11468,-0.68253
68.90000,-0.11485,-0.69303
69.00000,-0.11501,-0.71679
69.10000,-0.11518,-0.73161
69.20000,-0.11535,-0.74854
69.29999,-0.11551,-0.76327
69.40000,-0.11569,-0.76944
69.50000,-0.11585,-0.78270
69.60000,-0.11602,-0.80017
69.70000,-0.11618,-0.80928
69.79999,-0.11634,-0.82766
69.90000,-0.11651,-0.85451
70.00000,-0.11668,-0.87870
70.10000,-0.11684,-0.90117
70.20000,-0.11701,-0.91711
70.29999,-0.11718,-0.89600
70.40000,-0.11735,-0.78653
70.50000,-0.11751,-0.78973
70.60000,-0.11768,-0.80212
70.70000,-0.11784,-0.82058
70.79999,-0.11800,-0.84610
70.90000,-0.11817,-0.87262
71.00000,-0.11834,-0.90449
71.10000,-0.11850,-0.92035
71.20000,-0.11867,-0.94598
71.29999,-0.11884,-0.97851
71.40000,-0.11901,-1.01619
71.50000,-0.11918,-1.04941
71.60000,-0.11935,-1.09269
71.70000,-0.11951,-1.12587
71.79999,-0.11968,-1.17024
71.90000,-0.11984,-1.19582
72.00000,-0.12000,-1.22938
72.05580,-0.12010,-1.25281
72.10000,-0.12017,-1.27609
72.20000,-0.12033,-1.31657
72.29999,-0.12051,-1.36968
72.40000,-0.12067,-1.41417
72.50000,-0.12084,-1.44178
72.60000,-0.12101,-1.48635
72.70000,-0.12118,-1.50617
72.79999,-0.12135,-1.53987
72.90000,-0.12151,-1.57655
73.00000,-0.12168,-1.61349
73.10000,-0.12184,-1.66149
73.20000,-0.12201,-1.70342
73.29999,-0.12217,-1.74579
73.40000,-0.12234,-1.81244
73.50000,-0.12251,-1.85302
73.60000,-0.12268,-1.91395
73.70000,-0.12285,-1.95203
73.79999,-0.12301,-1.99122
73.90000,-0.12318,-2.04047
74.00000,-0.12335,-2.06817
74.10000,-0.12351,-2.11023
74.20000,-0.12368,-2.14899
74.29999,-0.12385,-2.18740
74.40000,-0.12401,-2.20977
74.50000,-0.12417,-2.22214
74.60000,-0.12434,-2.25428
74.70000,-0.12451,-2.29908
74.79999,-0.12467,-2.34348
74.90000,-0.12485,-2.39506
75.00000,-0.12502,-2.43825
75.10000,-0.12519,-2.46712
75.15880,-0.12529,-2.49976
75.20000,-0.12535,-2.51728
75.29999,-0.12552,-2.54906
75.40000,-0.12569,-2.60177
75.50000,-0.12585,-2.63949
75.60000,-0.12602,-2.67604
75.70000,-0.12618,-2.70286
75.79999,-0.12634,-2.74156
75.90000,-0.12651,-2.78485
76.00000,-0.12668,-2.80815
76.10000,-0.12685,-2.64617
76.20000,-0.12702,-2.62659
76.29999,-0.12718,-2.61620
76.40000,-0.12735,-2.59886
76.50000,-0.12751,-2.59290
76.60000,-0.12769,-2.24943
76.70000,-0.12785,-2.09613
76.77380,-0.12798,-1.96829
76.79999,-0.12803,-1.35520
76.90000,-0.12818,-0.97580
77.00000,-0.12834,-1.00226
77.10000,-0.12851,-1.02758
77.20000,-0.12868,-1.06777
77.29999,-0.12885,-1.06577
77.40000,-0.12902,-1.04728
77.50000,-0.12919,-1.04798
77.60000,-0.12935,-1.03904
77.70000,-0.12951,-1.05874
77.79999,-0.12968,-1.07973
77.90000,-0.12984,-1.09207
78.00000,-0.13001,-1.12371
78.10000,-0.13018,-1.14907
78.20000,-0.13035,-1.17607
78.29999,-0.13052,-1.19668
78.40000,-0.13068,-1.21245
78.50000,-0.13085,-1.24018
78.60000,-0.13102,-1.27885
78.70000,-0.13119,-1.31249
78.79999,-0.13135,-1.35770
78.90000,-0.13151,-1.40176
79.00000,-0.13168,-1.43825
79.10000,-0.13184,-1.48365
79.20000,-0.13201,-1.52311
79.29999,-0.13218,-1.56135
79.40000,-0.13234,-1.55387
79.50000,-0.13251,-1.54492
79.60000,-0.13268,-1.56517
79.70000,-0.13285,-1.58492
79.79999,-0.13302,-1.61327
79.90000,-0.13319,-1.65555
80.00000,-0.13335,-1.67020
80.10000,-0.13351,-1.70948
80.20000,-0.13368,-1.73260
80.29999,-0.13385,-1.78576
80.40000,-0.13401,-1.83578
80.50000,-0.13417,-1.86752
80.60000,-0.13434,-1.92456
80.70000,-0.13451,-1.97932
80.79999,-0.13467,-2.02178
80.90000,-0.13485,-2.06392
81.00000,-0.13501,-2.09636
81.10000,-0.13518,-2.14003
81.20000,-0.13534,-2.17708
81.29999,-0.13551,-2.20995
81.40000,-0.13568,-2.24040
81.50000,-0.13584,-2.26521
81.60000,-0.13601,-2.26754
81.70000,-0.13618,-2.21903
81.79999,-0.13634,-2.19308
81.90000,-0.13651,-2.17070
82.00000,-0.13668,-1.98415
82.10000,-0.13685,-1.98758
82.20000,-0.13702,-2.02485
82.29999,-0.13719,-2.02983
82.40000,-0.13735,-2.04117
82.50000,-0.13751,-2.07997
82.60000,-0.13768,-2.10123
82.70000,-0.13785,-2.12286
82.79999,-0.13801,-2.13322
82.90000,-0.13817,-2.14041
83.00000,-0.13834,-2.17689
83.10000,-0.13851,-2.19338
83.20000,-0.13868,-2.23028
83.29999,-0.13885,-2.27698
83.40000,-0.13901,-2.29852
83.50000,-0.13918,-2.33118
83.60000,-0.13935,-2.35703
83.70000,-0.13951,-2.36804
83.79999,-0.13968,-2.37121
83.90000,-0.13984,-2.38429
84.00000,-0.14001,-2.37958
84.10000,-0.14018,-2.39210
84.20000,-0.14034,-2.39127
84.29999,-0.14051,-2.32051
84.40000,-0.14068,-2.12965
84.50000,-0.14085,-1.56532
84.60000,-0.14102,-1.50713
84.70000,-0.14119,-1.47624
84.79999,-0.14135,-1.45383
84.90000,-0.14152,-1.43166
85.00000,-0.14168,-1.42140
85.10000,-0.14185,-1.36435
85.20000,-0.14202,-1.16574
85.29999,-0.14218,-1.12819
85.40000,-0.14235,-1.08658
85.50000,-0.14251,-1.06164
85.60000,-0.14268,-1.04921
85.70000,-0.14285,-1.07432
85.79999,-0.14302,-1.09037
85.90000,-0.14319,-1.10785
86.00000,-0.14335,-1.13512
86.10000,-0.14351,-1.14633
86.20000,-0.14369,-1.17777
86.29999,-0.14385,-1.18853
86.40000,-0.14402,-1.22069
86.50000,-0.14418,-1.25554
86.60000,-0.14435,-1.27614
86.70000,-0.14452,-1.30880
86.79999,-0.14468,-1.33139
86.90000,-0.14485,-1.36181
87.00000,-0.14502,-1.39763
87.10000,-0.14519,-1.41957
87.20000,-0.14535,-1.43997
87.29999,-0.14552,-1.46042
87.40000,-0.14568,-1.47474
87.50000,-0.14585,-1.49541
87.60000,-0.14601,-1.50261
87.70000,-0.14618,-1.47125
87.79999,-0.14635,-1.48412
87.90000,-0.14651,-1.49109
88.00000,-0.14668,-1.50091
88.10000,-0.14685,-1.47661
88.20000,-0.14702,-1.32152
88.29999,-0.14719,-1.21463
88.40000,-0.14735,-1.10054
88.50000,-0.14751,-0.99462
88.60000,-0.14768,-0.98352
88.70000,-0.14784,-0.98945
88.79999,-0.14801,-0.99735
88.90000,-0.14817,-0.99401
89.00000,-0.14835,-0.99084
89.10000,-0.14851,-1.00567
89.20000,-0.14868,-1.02750
89.29999,-0.14885,-1.05179
89.40000,-0.14902,-1.06765
89.50000,-0.14919,-1.09026
89.60000,-0.14935,-1.11484
89.70000,-0.14951,-1.14177
89.79999,-0.14968,-1.15355
89.90000,-0.14984,-1.15093
90.00000,-0.15001,-1.15011
90.10000,-0.15017,-1.16524
90.20000,-0.15034,-1.20359
90.29999,-0.15051,-1.24370
90.40000,-0.15067,-1.27357
90.50000,-0.15085,-1.31293
90.60000,-0.15101,-1.35094
90.70000,-0.15118,-1.37912
90.79999,-0.15134,-1.41480
90.89999,-0.15151,-1.44828
91.00000,-0.15168,-1.49336
91.10000,-0.15184,-1.53990
91.20000,-0.15201,-1.58030
91.29999,-0.15217,-1.62089
91.39999,-0.15234,-1.68051
91.50000,-0.15251,-1.73524
91.60000,-0.15267,-1.78377
91.70000,-0.15285,-1.82970
91.79999,-0.15301,-1.86247
91.89999,-0.15318,-1.91545
92.00000,-0.15335,-1.95283
92.10000,-0.15351,-1.99464
92.20000,-0.15368,-2.03179
92.29999,-0.15384,-2.06530
92.39999,-0.15401,-2.12979
92.50000,-0.15417,-2.17152
92.60000,-0.15434,-2.20302
92.70000,-0.15451,-2.25543
92.79999,-0.15467,-2.30153
92.89999,-0.15485,-2.35150
93.00000,-0.15501,-2.39230
93.10000,-0.15518,-2.43702
93.20000,-0.15534,-2.48403
93.24780,-0.15542,-2.49413
93.29999,-0.15551,-2.52897
93.39999,-0.15568,-2.57376
93.50000,-0.15584,-2.61172
93.60000,-0.15601,-2.65715
93.70000,-0.15618,-2.70302
93.79999,-0.15634,-2.75781
93.89999,-0.15651,-2.81223
94.00000,-0.15668,-2.85630
94.10000,-0.15685,-2.90247
94.20000,-0.15701,-2.95313
94.29999,-0.15718,-2.99293
94.39999,-0.15735,-3.03742
94.50000,-0.15751,-3.07891
94.60000,-0.15768,-3.11518
94.70000,-0.15784,-3.15327
94.79999,-0.15801,-3.19841
94.89999,-0.15817,-3.24976
95.00000,-0.15834,-3.30480
95.10000,-0.15851,-3.36570
95.20000,-0.15867,-3.42466
95.29999,-0.15884,-3.44902
95.39999,-0.15901,-3.46359
95.50000,-0.15918,-3.47784
95.60000,-0.15934,-3.50659
95.70000,-0.15951,-3.53848
95.79999,-0.15967,-3.56229
95.89999,-0.15984,-3.59913
96.00000,-0.16001,-3.62271
96.10000,-0.16017,-3.63534
96.20000,-0.16034,-3.66371
96.29999,-0.16050,-3.70309
96.39680,-0.16067,-3.73194
96.39999,-0.16067,-3.73306
96.50000,-0.16084,-3.76162
96.60000,-0.16101,-3.77428
96.70000,-0.16118,-3.80703
96.79999,-0.16134,-3.81827
96.89999,-0.16151,-3.82784
97.00000,-0.16168,-3.85348
97.10000,-0.16184,-3.87992
97.20000,-0.16201,-3.92957
97.29999,-0.16217,-3.97179
97.39999,-0.16234,-4.02359
97.50000,-0.16250,-4.08313
97.60000,-0.16268,-4.13499
97.70000,-0.16284,-4.20128
97.79999,-0.16301,-4.24376
97.89999,-0.16318,-4.28613
98.00000,-0.16334,-4.32713
98.10000,-0.16351,-4.37234
98.20000,-0.16368,-4.42481
98.29999,-0.16384,-4.46098
98.39999,-0.16401,-4.51410
98.50000,-0.16417,-4.56191
98.60000,-0.16434,-4.60481
98.70000,-0.16451,-4.67773
98.79999,-0.16468,-4.71974
98.89999,-0.16484,-4.76542
99.00000,-0.16501,-4.79800
99.10000,-0.16518,-4.82729
99.20000,-0.16534,-4.87277
99.29999,-0.16551,-4.90156
99.39999,-0.16567,-4.94581
99.49680,-0.16584,-4.98158
99.50000,-0.16584,-4.98312
99.60000,-0.16601,-5.03018
99.70000,-0.16617,-5.07101
99.79999,-0.16634,-5.10442
99.89999,-0.16650,-5.14854
100.00000,-0.16667,-5.17770
100.10000,-0.16684,-5.20809
100.20000,-0.16701,-5.25003
100.29999,-0.16718,-5.26396
100.39999,-0.16734,-5.29906
100.50000,-0.16751,-5.33307
100.60000,-0.16768,-5.36197
100.70000,-0.16784,-5.39886
100.79999,-0.16801,-5.42061
100.89999,-0.16817,-5.47571
101.00000,-0.16834,-5.50326
101.10000,-0.16850,-5.54655
101.20000,-0.16867,-5.58839
101.29999,-0.16884,-5.62145
101.39999,-0.16901,-5.67106
101.50000,-0.16918,-5.68436
101.60000,-0.16934,-5.70808
101.70000,-0.16951,-5.71448
101.79999,-0.16967,-5.72624
101.89999,-0.16983,-5.75440
102.00000,-0.17000,-5.76200
102.10000,-0.17017,-5.83266
102.20000,-0.17034,-5.87090
102.29999,-0.17050,-5.95615
102.39999,-0.17068,-6.02213
102.50000,-0.17084,-6.07360
102.60000,-0.17101,-6.14479
102.70000,-0.17118,-6.17522
102.75880,-0.17128,-6.20665
102.79999,-0.17135,-6.23649
102.89999,-0.17151,-6.28353
103.00000,-0.17168,-6.33611
103.10000,-0.17184,-6.39259
103.20000,-0.17201,-6.44199
103.29999,-0.17217,-6.50189
103.39999,-0.17234,-6.57392
103.50000,-0.17250,-6.61623
103.60000,-0.17268,-6.68927
103.70000,-0.17284,-6.73489
103.79999,-0.17301,-6.76718
103.89999,-0.17318,-6.82125
104.00000,-0.17334,-6.86354
104.10000,-0.17351,-6.92159
104.20000,-0.17367,-6.99273
104.29999,-0.17384,-7.04866
104.39999,-0.17400,-7.10990
104.50000,-0.17417,-7.19511
104.60000,-0.17434,-7.26997
104.70000,-0.17451,-7.38139
104.76180,-0.17461,-7.40831
104.79999,-0.17467,-7.45051
104.89999,-0.17484,-7.54408
105.00000,-0.17501,-7.61790
105.10000,-0.17518,-7.67808
105.20000,-0.17534,-7.76911
105.29999,-0.17551,-7.82079
105.39999,-0.17567,-7.91653
105.50000,-0.17584,-7.98935
105.60000,-0.17601,-8.07260
105.70000,-0.17617,-8.17251
105.79999,-0.17634,-8.25145
105.89999,-0.17651,-8.38374
106.00000,-0.17667,-8.47037
106.10000,-0.17684,-8.57693
106.20000,-0.17701,-8.66835
106.29999,-0.17718,-8.73413
106.30280,-0.17718,-8.73627
106.39999,-0.17734,-8.82872
106.50000,-0.17751,-8.89294
106.60000,-0.17767,-8.98685
106.70000,-0.17784,-9.08428
106.79999,-0.17801,-9.17099
106.89999,-0.17817,-9.28411
107.00000,-0.17834,-9.38246
107.10000,-0.17851,-9.48448
107.20000,-0.17868,-9.61104
107.29999,-0.17884,-9.68072
107.39999,-0.17901,-9.78799
107.50000,-0.17918,-9.86486
107.55180,-0.17926,-9.90974
107.60000,-0.17934,-9.94373
107.70000,-0.17951,-10.05467
107.79999,-0.17968,-10.11336
107.89999,-0.17984,-10.21583
108.00000,-0.18001,-10.30658
108.10000,-0.18017,-10.40557
108.20000,-0.18034,-10.51747
108.29999,-0.18051,-10.63164
108.39999,-0.18068,-10.72310
108.50000,-0.18085,-10.79010
108.60000,-0.18101,-10.86533
108.70000,-0.18118,-10.91750
108.79999,-0.18134,-11.01771
108.89999,-0.18151,-11.06923
109.00000,-0.18168,-11.14761
109.08880,-0.18183,-11.19040
109.10000,-0.18185,-11.21609
109.20000,-0.18201,-11.27311
109.29999,-0.18218,-11.36932
109.39999,-0.18234,-11.43740
109.50000,-0.18251,-11.53774
109.60000,-0.18268,-11.61742
109.70000,-0.18285,-11.67679
109.79999,-0.18301,-11.76255
109.89999,-0.18318,-11.83499
110.00000,-0.18334,-11.89741
110.10000,-0.18351,-11.98467
110.20000,-0.18367,-12.02281
110.29999,-0.18384,-12.10227
110.39999,-0.18401,-12.18011
110.50000,-0.18417,-12.23540
110.60000,-0.18434,-12.36908
110.69880,-0.18450,-12.43086
110.70000,-0.18450,-12.43267
110.79999,-0.18468,-12.56582
110.89999,-0.18484,-12.62155
111.00000,-0.18501,-12.70688
111.10000,-0.18518,-12.78401
111.20000,-0.18534,-12.82827
111.29999,-0.18551,-12.91466
111.39999,-0.18567,-12.98671
111.50000,-0.18584,-13.05864
111.60000,-0.18601,-13.13428
111.70000,-0.18617,-13.23095
111.79999,-0.18634,-13.30537
111.89999,-0.18650,-13.42219
112.00000,-0.18667,-13.47564
112.10000,-0.18684,-13.35360
112.20000,-0.18701,-13.46584
112.29999,-0.18718,-13.54182
112.39999,-0.18734,-13.67866
112.47180,-0.18746,-13.70290
112.50000,-0.18751,-13.74613
112.60000,-0.18768,-13.84694
112.70000,-0.18784,-13.93031
112.79999,-0.18801,-14.01904
112.89999,-0.18817,-14.12410
113.00000,-0.18834,-14.22854
113.10000,-0.18851,-14.35687
113.20000,-0.18868,-14.45428
113.29999,-0.18884,-14.54272
113.39999,-0.18901,-14.63076
113.50000,-0.18918,-14.66853
113.60000,-0.18934,-14.71490
113.70000,-0.18951,-14.78582
113.79999,-0.18968,-14.82647
113.88080,-0.18981,-14.90257
113.89999,-0.18984,-14.92184
114.00000,-0.19001,-15.01125
114.10000,-0.19017,-15.10163
114.20000,-0.19034,-15.24278
114.29999,-0.19051,-15.33426
114.39999,-0.19068,-15.48580
114.50000,-0.19084,-15.59863
114.60000,-0.19101,-15.70817
114.70000,-0.19118,-15.83969
114.79999,-0.19134,-15.86923
114.89999,-0.19151,-15.99442
115.00000,-0.19167,-16.10215
115.08780,-0.19182,-16.15317
115.10000,-0.19184,-16.17758
115.20000,-0.19201,-16.30430
115.29999,-0.19217,-16.41235
115.39999,-0.19234,-16.53834
115.50000,-0.19250,-16.65665
115.60000,-0.19268,-16.74626
115.70000,-0.19284,-16.84401
115.79999,-0.19301,-16.94048
115.89999,-0.19318,-17.00948
116.00000,-0.19335,-17.14240
116.10000,-0.19351,-17.23348
116.20000,-0.19368,-17.38481
116.27280,-0.19380,-17.46858
116.29999,-0.19385,-17.50876
116.39999,-0.19401,-17.67242
116.50000,-0.19418,-17.84472
116.60000,-0.19434,-18.02166
116.70000,-0.19451,-18.20450
116.79999,-0.19468,-18.36708
116.89999,-0.19484,-18.51766
116.97380,-0.19497,-18.60888
117.00000,-0.19501,-18.67116
117.10000,-0.19517,-18.80443
117.20000,-0.19534,-18.94311
117.29999,-0.19551,-19.12072
117.39999,-0.19568,-19.25313
117.50000,-0.19585,-19.41429
117.60000,-0.19600,-19.58390
117.70000,-0.19617,-19.73506
117.75780,-0.19627,-19.88189
117.79999,-0.19633,-19.96172
117.89999,-0.19650,-20.15114
118.00000,-0.19667,-20.34748
118.10000,-0.19684,-20.51153
118.20000,-0.19701,-20.64209
118.29999,-0.19718,-20.78677
118.39999,-0.19735,-20.94010
118.50000,-0.19751,-21.09252
118.54380,-0.19758,-21.17912
118.60000,-0.19768,-21.23579
118.70000,-0.19784,-21.42649
118.79999,-0.19801,-21.58362
118.89999,-0.19818,-21.78242
119.00000,-0.19834,-21.95013
119.10000,-0.19851,-22.15139
119.20000,-0.19867,-22.34676
119.25780,-0.19877,-22.43529
119.29999,-0.19884,-22.51378
119.39999,-0.19901,-22.71235
119.50000,-0.19918,-22.84667
119.60000,-0.19934,-23.02116
119.70000,-0.19950,-23.18488
119.79999,-0.19967,-23.36102
119.89999,-0.19984,-23.54468
119.93080,-0.19989,-23.61875
120.00000,-0.20000,-23.72225
120.10000,-0.20017,-23.93334
120.20000,-0.20034,-24.13997
120.29999,-0.20050,-24.38102
120.39999,-0.20067,-24.59948
120.50000,-0.20084,-24.79011
120.52280,-0.20087,-24.83376
120.60000,-0.20101,-24.99755
120.70000,-0.20117,-25.18391
120.79999,-0.20134,-25.33482
120.89999,-0.20150,-25.55321
121.00000,-0.20167,-25.70416
121.10000,-0.20184,-25.92259
121.20000,-0.20200,-26.10986
121.21780,-0.20203,-26.14264
121.29999,-0.20217,-26.33471
121.39999,-0.20233,-26.55567
121.50000,-0.20250,-26.78771
121.60000,-0.20267,-27.05893
121.70000,-0.20284,-27.25571
121.77680,-0.20297,-27.43368
121.79999,-0.20301,-27.50457
121.89999,-0.20317,-27.66540
122.00000,-0.20334,-27.89157
122.10000,-0.20350,-28.06485
122.20000,-0.20367,-28.26677
122.29999,-0.20384,-28.42313
122.39999,-0.20400,-28.61261
122.43680,-0.20406,-28.68496
122.50000,-0.20417,-28.86758
122.60000,-0.20434,-29.07876
122.70000,-0.20450,-29.34741
122.79999,-0.20467,-29.54528
122.89999,-0.20484,-29.77972
122.96780,-0.20496,-29.89720
123.00000,-0.20501,-29.99095
123.10000,-0.20518,-30.16159
123.20000,-0.20535,-30.33664
123.29999,-0.20551,-30.52941
123.39999,-0.20567,-30.72873
123.50000,-0.20584,-30.92183
123.58380,-0.20597,-31.09233
123.60000,-0.20600,-31.16602
123.70000,-0.20617,-31.34878
123.79999,-0.20634,-31.64159
123.89999,-0.20651,-31.89310
124.00000,-0.20667,-32.13257
124.06380,-0.20678,-32.26596
124.10000,-0.20683,-32.37653
124.20000,-0.20701,-32.58715
124.29999,-0.20718,-32.80661
124.39999,-0.20734,-33.00492
124.50000,-0.20751,-33.22272
124.60000,-0.20767,-33.43946
124.67980,-0.20781,-33.57336
124.70000,-0.20784,-33.66413
124.79999,-0.20801,-33.88514
124.89999,-0.20817,-34.10060
125.00000,-0.20833,-34.36398
125.10000,-0.20850,-34.65797
125.20000,-0.20867,-34.91888
125.20980,-0.20869,-34.93940
125.29999,-0.20884,-35.18785
125.39999,-0.20901,-35.41956
125.50000,-0.20917,-35.61299
125.60000,-0.20934,-35.83523
125.70000,-0.20951,-36.01988
125.78180,-0.20964,-36.21132
125.79999,-0.20967,-36.25320
125.89999,-0.20984,-36.49109
126.00000,-0.21000,-36.70874
126.10000,-0.21017,-37.00271
126.20000,-0.21033,-37.22953
126.23280,-0.21039,-37.32999
126.29999,-0.21050,-37.52244
126.39999,-0.21067,-37.79269
126.50000,-0.21084,-38.04832
126.60000,-0.21101,-38.29420
126.70000,-0.21117,-38.50354
126.71080,-0.21119,-38.51597
126.79999,-0.21134,-38.71917
126.89999,-0.21150,-38.94828
127.00000,-0.21167,-39.16056
127.10000,-0.21184,-39.40796
127.20000,-0.21200,-39.62907
127.29780,-0.21217,-39.84448
127.29999,-0.21217,-39.85028
127.39999,-0.21233,-40.16580
127.50000,-0.21250,-40.43518
127.60000,-0.21267,-40.73034
127.70000,-0.21284,-41.00832
127.74780,-0.21293,-41.13075
127.79999,-0.21301,-41.21058
127.89999,-0.21317,-41.49535
128.00000,-0.21334,-41.67956
128.09999,-0.21351,-41.92762
128.20000,-0.21367,-42.13537
128.30000,-0.21384,-42.37660
128.33080,-0.21389,-42.43594
128.39999,-0.21400,-42.63740
128.50000,-0.21417,-42.87621
128.59999,-0.21433,-43.18736
128.70000,-0.21450,-43.45657
128.76680,-0.21461,-43.67384
128.80000,-0.21467,-43.75470
128.89999,-0.21483,-44.02720
129.00000,-0.21500,-44.25473
129.09999,-0.21517,-44.51938
129.20000,-0.21534,-44.74910
129.21880,-0.21538,-44.77299
129.30000,-0.21550,-44.96218
129.39999,-0.21567,-45.22223
129.50000,-0.21584,-45.41583
129.59999,-0.21600,-45.69512
129.70000,-0.21617,-45.93325
129.74780,-0.21625,-46.07471
129.80000,-0.21633,-46.23035
129.89999,-0.21650,-46.53689
130.00000,-0.21667,-46.80940
130.09999,-0.21684,-47.13305
130.19780,-0.21701,-47.32479
130.20000,-0.21701,-47.33251
130.30000,-0.21717,-47.57080
130.39999,-0.21734,-47.80939
130.50000,-0.21750,-48.02230
130.59999,-0.21767,-48.29530
130.70000,-0.21784,-48.51372
130.72980,-0.21789,-48.59383
130.80000,-0.21800,-48.76722
130.89999,-0.21817,-49.05383
131.00000,-0.21834,-49.33922
131.09998,-0.21851,-49.68381
131.20000,-0.21868,-49.94733
131.20080,-0.21868,-49.95011
131.30000,-0.21885,-50.21623
131.40000,-0.21902,-50.51194
131.50000,-0.21918,-50.72262
131.59998,-0.21935,-50.96964
131.69580,-0.21950,-51.19426
131.70000,-0.21951,-51.20733
131.80000,-0.21968,-51.43229
131.90000,-0.21985,-51.71226
132.00000,-0.22001,-51.92208
132.09998,-0.22018,-52.20453
132.14480,-0.22025,-52.32731
132.20000,-0.22034,-52.48979
132.30000,-0.22051,-52.78757
132.40000,-0.22068,-53.13342
132.50000,-0.22084,-53.39319
132.56280,-0.22095,-53.60046
132.59998,-0.22102,-53.67467
132.70000,-0.22118,-53.92603
132.80000,-0.22135,-54.14968
132.90000,-0.22151,-54.41443
133.00000,-0.22168,-54.65633
133.06880,-0.22179,-54.81936
133.09998,-0.22184,-54.88576
133.20000,-0.22200,-55.20101
133.30000,-0.22217,-55.46556
133.40000,-0.22234,-55.77261
133.50000,-0.22250,-56.08811
133.51680,-0.22253,-56.09819
133.59998,-0.22267,-56.37470
133.70000,-0.22285,-56.68453
133.80000,-0.22301,-56.92111
133.90000,-0.22317,-57.20891
133.99280,-0.22333,-57.39610
134.00000,-0.22334,-57.42325
134.09998,-0.22351,-57.67930
134.20000,-0.22368,-57.94941
134.30000,-0.22384,-58.16331
134.40000,-0.22400,-58.45111
134.48680,-0.22415,-58.66779
134.50000,-0.22417,-58.71688
134.59998,-0.22434,-59.01582
134.70000,-0.22451,-59.36080
134.80000,-0.22467,-59.63707
134.87580,-0.22480,-59.87936
134.90000,-0.22484,-59.93583
135.00000,-0.22501,-60.20630
135.09998,-0.22517,-60.43256
135.20000,-0.22535,-60.70115
135.30000,-0.22551,-60.91562
135.35180,-0.22559,-61.04768
135.40000,-0.22568,-61.20014
135.50000,-0.22584,-61.43606
135.59998,-0.22601,-61.72214
135.70000,-0.22617,-62.00984
135.79880,-0.22634,-62.28546
135.80000,-0.22634,-62.28912
135.90000,-0.22651,-62.63959
136.00000,-0.22668,-62.90582
136.09998,-0.22684,-63.21413
136.20000,-0.22701,-63.46684
136.24480,-0.22708,-63.58194
136.30000,-0.22718,-63.69828
136.40000,-0.22734,-63.99224
136.50000,-0.22751,-64.19308
136.59998,-0.22768,-64.49549
136.70000,-0.22784,-64.71056
136.77780,-0.22796,-64.90167
136.80000,-0.22800,-64.95818
136.90000,-0.22817,-65.27697
137.00000,-0.22833,-65.52769
137.09998,-0.22850,-65.89990
137.19580,-0.22866,-66.16741
137.20000,-0.22867,-66.18508
137.30000,-0.22885,-66.50658
137.40000,-0.22901,-66.79148
137.50000,-0.22918,-67.01463
137.59998,-0.22935,-67.26268
137.66080,-0.22945,-67.42014
137.70000,-0.22951,-67.52589
137.80000,-0.22968,-67.74448
137.90000,-0.22984,-68.05053
138.00000,-0.23001,-68.28757
138.09998,-0.23017,-68.60516
138.13480,-0.23022,-68.67352
138.20000,-0.23033,-68.89603
138.30000,-0.23051,-69.20003
138.40000,-0.23067,-69.55351
138.50000,-0.23083,-69.79259
138.50280,-0.23084,-69.80446
138.59998,-0.23100,-70.13865
138.70000,-0.23117,-70.35848
138.80000,-0.23135,-70.63495
138.90000,-0.23150,-70.88532
138.97880,-0.23164,-71.04792
139.00000,-0.23167,-71.11541
139.09998,-0.23184,-71.43369
139.20000,-0.23200,-71.63755
139.30000,-0.23217,-71.95919
139.40000,-0.23233,-72.22887
139.42480,-0.23237,-72.32927
139.50000,-0.23250,-72.56160
139.59998,-0.23267,-72.92107
139.70000,-0.23284,-73.18395
139.80000,-0.23300,-73.47539
139.84880,-0.23308,-73.57027
139.90000,-0.23317,-73.73751
140.00000,-0.23333,-73.98079
140.09998,-0.23351,-74.28569
140.20000,-0.23367,-74.51191
140.30000,-0.23383,-74.76541
140.35380,-0.23392,-74.86296
140.40000,-0.23400,-75.04480
140.50000,-0.23417,-75.32197
140.59998,-0.23433,-75.65139
140.70000,-0.23450,-75.95173
140.76180,-0.23460,-76.19348
140.80000,-0.23467,-76.31014
140.90000,-0.23484,-76.58562
141.00000,-0.23501,-76.86234
141.09998,-0.23517,-77.14213
141.20000,-0.23534,-77.36599
141.20180,-0.23535,-77.37003
141.30000,-0.23550,-77.68422
141.40000,-0.23566,-77.87160
141.50000,-0.23584,-78.17711
141.59998,-0.23600,-78.42921
141.62680,-0.23604,-78.52466
141.70000,-0.23617,-78.71600
141.80000,-0.23632,-79.03364
141.90000,-0.23650,-79.34318
142.00000,-0.23667,-79.71419
142.04480,-0.23674,-79.81849
142.09998,-0.23684,-79.98557
142.20000,-0.23700,-80.26528
142.30000,-0.23717,-80.55673
142.40000,-0.23734,-80.79296
142.50000,-0.23750,-81.04920
142.51980,-0.23753,-81.06935
142.59998,-0.23767,-81.31014
142.70000,-0.23784,-81.57215
142.80000,-0.23801,-81.84838
142.90000,-0.23817,-82.16007
142.96880,-0.23829,-82.34860
143.00000,-0.23833,-82.42010
143.09998,-0.23850,-82.79442
143.20000,-0.23867,-83.08875
143.30000,-0.23884,-83.37940
143.38980,-0.23899,-83.66793
143.40000,-0.23900,-83.70097
143.50000,-0.23917,-83.92877
143.59998,-0.23934,-84.21957
143.70000,-0.23950,-84.46972
143.80000,-0.23967,-84.70353
143.88080,-0.23980,-84.93119
143.90000,-0.23983,-85.00008
144.00000,-0.24000,-85.23582
144.09998,-0.24017,-85.56579
144.20000,-0.24033,-85.86176
144.29680,-0.24050,-86.16233
144.30000,-0.24050,-86.17052
144.40000,-0.24067,-86.52786
144.50000,-0.24084,-86.79012
144.59998,-0.24101,-87.10716
144.69280,-0.24117,-87.30132
144.70000,-0.24118,-87.33867
144.80000,-0.24134,-87.55915
144.90000,-0.24150,-87.83861
145.00000,-0.24167,-88.03161
145.09998,-0.24183,-88.34905
145.17080,-0.24195,-88.47997
145.20000,-0.24200,-88.58828
145.30000,-0.24217,-88.88403
145.40000,-0.24233,-89.21250
145.50000,-0.24250,-89.49960
145.58780,-0.24265,-89.79200
145.59998,-0.24267,-89.87289
145.70000,-0.24284,-90.10663
145.80000,-0.24300,-90.42680
145.90000,-0.24317,-90.66986
146.00000,-0.24334,-90.90209
146.06580,-0.24345,-91.07120
146.09998,-0.24350,-91.17517
146.20000,-0.24367,-91.39925
146.30000,-0.24384,-91.64859
146.40000,-0.24400,-91.92756
146.50000,-0.24417,-92.19661
146.56780,-0.24428,-92.41059
146.59998,-0.24433,-92.49166
146.70000,-0.24450,-92.83442
146.80000,-0.24466,-93.11224
146.90000,-0.24484,-93.42320
147.00000,-0.24500,-93.66515
147.01780,-0.24503,-93.71354
147.09998,-0.24517,-93.85224
147.13080,-0.24525,-93.71817
147.13180,-0.24527,-93.37987
147.13280,-0.24530,-92.76842
147.13378,-0.24534,-91.86338
147.13480,-0.24538,-90.67580
147.13580,-0.24542,-89.23271
147.13680,-0.24546,-87.56762
147.13780,-0.24549,-85.71108
147.13880,-0.24553,-83.68962
147.13980,-0.24555,-81.52574
147.14080,-0.24558,-79.23827
147.14180,-0.24560,-76.84592
147.14280,-0.24562,-74.36714
147.14380,-0.24563,-71.81916
147.14480,-0.24564,-69.21833
147.14580,-0.24564,-66.57890
147.14680,-0.24564,-63.91323
147.14780,-0.24565,-61.23294
147.14880,-0.24565,-58.54888
147.14980,-0.24565,-55.87185
147.15080,-0.24565,-53.21244
147.15180,-0.24565,-50.57972
147.15280,-0.24565,-47.98145
147.15380,-0.24565,-45.42403
147.15480,-0.24565,-42.91271
147.15580,-0.24565,-40.45273
147.15680,-0.24566,-38.04925
147.15780,-0.24566,-35.70697
147.15880,-0.24566,-33.43009
147.15980,-0.24567,-31.22167
147.16080,-0.24567,-29.08376
147.16178,-0.24568,-27.01805
147.16280,-0.24569,-25.02593
147.16380,-0.24570,-23.10897
147.16480,-0.24571,-21.26863
147.16580,-0.24573,-19.50553
147.16680,-0.24574,-17.81968
147.16780,-0.24576,-16.21049
147.16880,-0.24578,-14.67710
147.16980,-0.24579,-13.21887
147.17080,-0.24581,-11.83519
147.17180,-0.24583,-10.52530
147.17280,-0.24585,-9.28813
147.17380,-0.24587,-8.12196
147.17480,-0.24589,-7.02475
147.17580,-0.24591,-5.99449
147.17680,-0.24593,-5.02921
147.17780,-0.24596,-4.12724
147.17880,-0.24598,-3.28690
147.17980,-0.24599,-2.50624
147.18080,-0.24601,-1.78312
147.18180,-0.24603,-1.11516
147.18280,-0.24605,-0.50008
147.18380,-0.24607,0.06426
147.18480,-0.24609,0.57987
147.18580,-0.24610,1.04872
147.18680,-0.24612,1.47292
147.18780,-0.24614,1.85477
147.18880,-0.24615,2.19662
147.18978,-0.24617,2.50069
147.19080,-0.24618,2.76905
147.19180,-0.24619,3.00362
147.19280,-0.24620,3.20625
147.19380,-0.24621,3.37887
147.19480,-0.24622,3.52351
147.19580,-0.24623,3.64219
147.19680,-0.24624,3.73684
147.19780,-0.24625,3.80916
147.19880,-0.24626,3.86070
147.19980,-0.24626,3.89285
147.20000,-0.24626,3.89285
147.20080,-0.24627,3.90701
147.20180,-0.24628,3.90465
147.20280,-0.24628,3.88721
147.20380,-0.24629,3.85613
147.28880,-0.24619,-0.21983
147.30000,-0.24618,-0.15793
147.40000,-0.24606,-0.07480
147.50000,-0.24600,-0.06236
147.59998,-0.24602,-0.06337
147.70000,-0.24605,-0.05770
147.80000,-0.24616,-0.05729
147.90000,-0.24631,-0.05168
148.00000,-0.24651,-0.05069
148.09998,-0.24673,-0.05436
148.20000,-0.24695,-0.05056
148.30000,-0.24714,-0.05001
148.40000,-0.24729,-0.04322
148.50000,-0.24747,-0.04688
148.59998,-0.24764,-0.04370
148.70000,-0.24782,-0.03753
148.80000,-0.24798,-0.04266
148.90000,-0.24815,-0.03902
149.00000,-0.24833,-0.04115
149.09998,-0.24849,-0.04302
149.20000,-0.24865,-0.04174
149.30000,-0.24883,-0.03837
149.40000,-0.24899,-0.03448
149.50000,-0.24917,-0.03565
149.59998,-0.24933,-0.03542
149.70000,-0.24950,-0.03455
149.80000,-0.24966,-0.03630
149.90000,-0.24983,-0.04463
150.00000,-0.25000,-0.03906
150.09998,-0.25016,-0.03173
150.20000,-0.25033,-0.03292
150.30000,-0.25049,-0.03289
150.40000,-0.25066,-0.03293
150.50000,-0.25083,-0.03011
150.59998,-0.25100,-0.03191
150.70000,-0.25116,-0.03062
150.80000,-0.25133,-0.03535
150.90000,-0.25150,-0.03409
151.00000,-0.25167,-0.02982
151.09998,-0.25183,-0.02868
151.20000,-0.25200,-0.02928
151.30000,-0.25216,-0.02780
151.40000,-0.25232,-0.02858
151.50000,-0.25250,-0.03283
151.59998,-0.25266,-0.03243
151.70000,-0.25284,-0.03595
151.80000,-0.25301,-0.02861
151.90000,-0.25317,-0.02816
152.00000,-0.25333,-0.02600
152.09998,-0.25349,-0.02551
152.20000,-0.25367,-0.02747
152.30000,-0.25383,-0.02499
152.40000,-0.25401,-0.02705
152.50000,-0.25417,-0.02469
152.59998,-0.25433,-0.03249
152.70000,-0.25450,-0.03027
152.80000,-0.25467,-0.02701
152.90000,-0.25484,-0.02536
153.00000,-0.25500,-0.02327
153.09998,-0.25517,-0.02374
