Text Inputs : Specimen label,"2.104"
General : Start Date,1/28/2011 12:32 PM
General : End Date,1/28/2011 12:34 PM
Maximum Compressive load : Maximum Compressive load,6.87603,kgf
Maximum Compressive load : Compressive stress at Maximum Compressive load,0.72114,MPa

Time,Extension,Load
(sec),(mm),(N)
0.00000,0.00001,-0.02006
0.00180,0.00001,-0.02006
0.10000,0.00001,-0.00306
0.20000,-0.00002,-0.00808
0.30000,-0.00024,-0.00192
0.40000,-0.00049,-0.00046
0.50000,-0.00071,-0.00373
0.60000,-0.00091,-0.00290
0.70000,-0.00109,0.00208
0.80000,-0.00126,-0.00047
0.90000,-0.00143,-0.00519
1.00000,-0.00160,-0.00600
1.10000,-0.00178,-0.00344
1.20000,-0.00194,-0.00119
1.30000,-0.00211,-0.00145
1.40000,-0.00227,-0.00451
1.50000,-0.00244,-0.00234
1.60000,-0.00260,-0.00369
1.70000,-0.00278,-0.00439
1.80000,-0.00294,-0.00278
1.90000,-0.00310,-0.00828
2.00000,-0.00327,-0.00632
2.10000,-0.00344,-0.00428
2.20000,-0.00360,0.00085
2.30000,-0.00377,-0.00297
2.40000,-0.00394,-0.00382
2.50000,-0.00410,-0.00149
2.60000,-0.00426,-0.00193
2.70000,-0.00443,-0.00449
2.80000,-0.00460,-0.00424
2.90000,-0.00476,-0.00652
3.00000,-0.00493,-0.00239
3.10000,-0.00510,-0.00313
3.20000,-0.00527,-0.00028
3.30000,-0.00544,-0.00174
3.40000,-0.00560,-0.00108
3.50000,-0.00577,-0.00164
3.60000,-0.00594,-0.00286
3.70000,-0.00611,-0.00636
3.80000,-0.00627,-0.00719
3.90000,-0.00644,-0.00140
4.00000,-0.00661,-0.00076
4.10000,-0.00678,-0.00569
4.20000,-0.00695,-0.00267
4.30000,-0.00711,-0.00220
4.40000,-0.00728,-0.00279
4.50000,-0.00744,-0.00387
4.60000,-0.00761,-0.00491
4.70000,-0.00778,-0.00434
4.80000,-0.00794,-0.00410
4.90000,-0.00811,-0.00315
5.00000,-0.00827,-0.00474
5.10000,-0.00844,-0.00563
5.20000,-0.00861,0.00072
5.30000,-0.00879,-0.00086
5.40000,-0.00895,-0.00531
5.50000,-0.00912,-0.00889
5.60000,-0.00929,-0.00552
5.70000,-0.00945,0.00071
5.80000,-0.00962,-0.00224
5.90000,-0.00978,0.00176
6.00000,-0.00995,-0.00303
6.10000,-0.01012,-0.00209
6.20000,-0.01028,-0.00295
6.30000,-0.01045,-0.00074
6.40000,-0.01062,-0.00761
6.50000,-0.01079,-0.00326
6.60000,-0.01095,-0.00356
6.70000,-0.01112,-0.00006
6.80000,-0.01128,-0.00160
6.90000,-0.01145,-0.00005
7.00000,-0.01162,-0.00022
7.10000,-0.01179,0.00004
7.20000,-0.01195,-0.00434
7.30000,-0.01212,-0.00604
7.40000,-0.01228,-0.00598
7.50000,-0.01245,-0.00131
7.60000,-0.01262,-0.00195
7.70000,-0.01279,0.00019
7.80000,-0.01296,-0.00443
7.90000,-0.01312,-0.00595
8.00000,-0.01329,-0.00266
8.10000,-0.01346,-0.00271
8.20000,-0.01362,-0.00361
8.30000,-0.01378,-0.00141
8.40000,-0.01395,-0.00687
8.50000,-0.01411,0.00106
8.60000,-0.01428,-0.00289
8.70000,-0.01444,-0.00295
8.80000,-0.01461,-0.00020
8.90000,-0.01478,-0.00424
9.00000,-0.01494,-0.00319
9.10000,-0.01511,-0.00385
9.20000,-0.01528,-0.00473
9.30000,-0.01544,-0.00496
9.40000,-0.01561,-0.00439
9.50000,-0.01578,-0.00341
9.60000,-0.01594,-0.00601
9.70000,-0.01611,-0.00543
9.80000,-0.01627,-0.00104
9.90000,-0.01644,-0.00700
10.00000,-0.01661,-0.00601
10.10000,-0.01677,-0.00455
10.20000,-0.01694,-0.00149
10.30000,-0.01711,-0.00249
10.40000,-0.01727,0.00216
10.50000,-0.01744,-0.00417
10.60000,-0.01761,-0.00450
10.70000,-0.01777,-0.00371
10.80000,-0.01793,-0.00382
10.90000,-0.01810,-0.00375
11.00000,-0.01827,-0.00623
11.10000,-0.01844,-0.00118
11.20000,-0.01860,-0.00107
11.30000,-0.01877,-0.00580
11.40000,-0.01894,-0.00031
11.50000,-0.01911,-0.00415
11.60000,-0.01928,-0.00304
11.70000,-0.01944,-0.00117
11.80000,-0.01961,-0.00704
11.90000,-0.01977,-0.00440
12.00000,-0.01994,-0.00243
12.10000,-0.02011,-0.00188
12.20000,-0.02027,-0.00083
12.30000,-0.02044,-0.00556
12.40000,-0.02060,-0.00338
12.50000,-0.02078,-0.00471
12.60000,-0.02094,-0.00458
12.70000,-0.02111,-0.00396
12.80000,-0.02128,-0.00210
12.90000,-0.02144,-0.00099
13.00000,-0.02161,-0.00267
13.10000,-0.02178,-0.00244
13.20000,-0.02194,-0.00592
13.30000,-0.02211,0.00130
13.40000,-0.02227,-0.00197
13.50000,-0.02244,-0.00627
13.60000,-0.02261,-0.00451
13.70000,-0.02278,-0.00710
13.80000,-0.02294,-0.00052
13.90000,-0.02311,-0.00277
14.00000,-0.02328,-0.00324
14.10000,-0.02344,-0.00182
14.20000,-0.02361,-0.00723
14.30000,-0.02378,-0.00276
14.40000,-0.02395,-0.00391
14.50000,-0.02411,-0.00432
14.60000,-0.02427,-0.00512
14.70000,-0.02445,-0.00435
14.80000,-0.02461,-0.00154
14.90000,-0.02478,-0.00414
15.00000,-0.02495,-0.00659
15.10000,-0.02512,-0.00169
15.20000,-0.02528,-0.00414
15.30000,-0.02545,-0.00609
15.40000,-0.02561,-0.00370
15.50000,-0.02578,-0.00806
15.60000,-0.02594,-0.00235
15.70000,-0.02611,-0.00608
15.80000,-0.02627,-0.00409
15.90000,-0.02644,-0.00243
16.00000,-0.02660,-0.00241
16.10000,-0.02678,-0.00322
16.20000,-0.02694,-0.00588
16.30000,-0.02711,-0.00502
16.40000,-0.02728,-0.00400
16.50000,-0.02744,-0.00240
16.60000,-0.02761,-0.00077
16.70000,-0.02777,-0.00052
16.80000,-0.02794,-0.00538
16.90000,-0.02811,-0.00290
17.00000,-0.02827,-0.00446
17.10000,-0.02844,-0.00789
17.20000,-0.02860,-0.00215
17.30000,-0.02878,-0.00579
17.40000,-0.02894,-0.00383
17.50000,-0.02911,-0.00287
17.60000,-0.02928,-0.00271
17.70000,-0.02944,-0.00363
17.80000,-0.02961,-0.00148
17.90000,-0.02977,-0.00530
18.00000,-0.02994,-0.00402
18.10000,-0.03010,-0.00815
18.20000,-0.03027,-0.00720
18.30000,-0.03044,-0.00113
18.40000,-0.03060,-0.00130
18.50000,-0.03078,-0.00343
18.60000,-0.03094,-0.00341
18.70000,-0.03111,-0.00291
18.80000,-0.03127,-0.00296
18.90000,-0.03144,-0.00661
19.00000,-0.03161,-0.00435
19.10000,-0.03177,-0.00310
19.20000,-0.03194,-0.00330
19.30000,-0.03210,-0.00435
19.40000,-0.03227,-0.00126
19.50000,-0.03244,-0.00303
19.60000,-0.03260,-0.00390
19.70000,-0.03278,-0.00062
19.80000,-0.03294,-0.00600
19.90000,-0.03311,-0.00561
20.00000,-0.03328,-0.00349
20.10000,-0.03344,-0.00164
20.20000,-0.03361,-0.00377
20.30000,-0.03377,-0.00335
20.40000,-0.03394,-0.00249
20.50000,-0.03410,-0.00266
20.60000,-0.03427,-0.00388
20.70000,-0.03444,-0.00491
20.80000,-0.03460,-0.00582
20.90000,-0.03477,-0.00126
21.00000,-0.03494,-0.00283
21.10000,-0.03511,-0.00202
21.20000,-0.03527,-0.00436
21.30000,-0.03544,-0.00642
21.40000,-0.03561,0.00129
21.50000,-0.03577,-0.00423
21.60000,-0.03594,-0.00189
21.70000,-0.03610,-0.00115
21.80000,-0.03626,-0.00227
21.90000,-0.03643,-0.00220
22.00000,-0.03660,-0.00230
22.10000,-0.03677,-0.00164
22.20000,-0.03694,-0.00691
22.30000,-0.03710,-0.00456
22.40000,-0.03727,-0.00275
22.50000,-0.03743,-0.00489
22.60000,-0.03760,-0.00678
22.70000,-0.03777,-0.00419
22.80000,-0.03794,-0.00387
22.90000,-0.03810,-0.00107
23.00000,-0.03826,-0.00635
23.10000,-0.03843,-0.00633
23.20000,-0.03860,-0.00287
23.30000,-0.03878,-0.00214
23.40000,-0.03895,-0.00596
23.50000,-0.03912,-0.00520
23.60000,-0.03928,-0.00500
23.70000,-0.03944,-0.00123
23.80000,-0.03961,-0.00055
23.90000,-0.03977,-0.00556
24.00000,-0.03995,-0.00185
24.10000,-0.04011,-0.00426
24.20000,-0.04027,-0.00429
24.30000,-0.04044,-0.00474
24.40000,-0.04060,-0.00415
24.50000,-0.04077,-0.00109
24.60000,-0.04094,-0.00570
24.70000,-0.04111,-0.00240
24.80000,-0.04127,-0.00223
24.90000,-0.04144,-0.00731
25.00000,-0.04161,-0.00375
25.10000,-0.04177,-0.00270
25.20000,-0.04194,-0.00717
25.30000,-0.04211,-0.00393
25.40000,-0.04227,-0.00414
25.50000,-0.04244,-0.00378
25.60000,-0.04261,-0.00269
25.70000,-0.04278,-0.00009
25.80000,-0.04294,-0.00494
25.90000,-0.04311,-0.00354
26.00000,-0.04328,-0.00520
26.10000,-0.04344,-0.00637
26.20000,-0.04361,-0.00721
26.30000,-0.04377,-0.00399
26.40000,-0.04394,-0.00128
26.50000,-0.04410,-0.00327
26.60000,-0.04427,-0.00362
26.70000,-0.04444,-0.00426
26.80000,-0.04460,-0.00166
26.90000,-0.04478,-0.00293
27.00000,-0.04495,-0.00330
27.10000,-0.04512,-0.00688
27.20000,-0.04528,-0.00357
27.30000,-0.04544,-0.00360
27.40000,-0.04561,-0.00240
27.50000,-0.04577,-0.00546
27.60000,-0.04594,-0.00414
27.70000,-0.04611,-0.00407
27.80000,-0.04627,-0.00374
27.90000,-0.04644,-0.00370
28.00000,-0.04660,-0.00517
28.10000,-0.04678,-0.00618
28.20000,-0.04694,-0.00368
28.30000,-0.04711,-0.00143
28.40000,-0.04727,-0.00119
28.50000,-0.04744,-0.00126
28.60000,-0.04761,-0.00142
28.70000,-0.04777,-0.00340
28.80000,-0.04794,-0.00563
28.90000,-0.04811,-0.00232
29.00000,-0.04827,-0.00326
29.10000,-0.04844,-0.00233
29.20000,-0.04860,-0.00268
29.30000,-0.04877,-0.00587
29.40000,-0.04894,-0.00312
29.50000,-0.04911,-0.00505
29.60000,-0.04927,-0.00025
29.70000,-0.04944,-0.00397
29.80000,-0.04961,-0.00275
29.90000,-0.04977,-0.00348
30.00000,-0.04994,-0.00206
30.10000,-0.05010,0.00064
30.20000,-0.05027,-0.00341
30.30000,-0.05043,-0.00509
30.40000,-0.05060,-0.00297
30.50000,-0.05077,-0.00223
30.60000,-0.05094,-0.00427
30.70000,-0.05111,-0.00555
30.80000,-0.05127,-0.00077
30.90000,-0.05144,-0.00485
31.00000,-0.05160,-0.00210
31.10000,-0.05177,-0.00561
31.20000,-0.05194,-0.00222
31.30000,-0.05210,-0.00214
31.40000,-0.05227,0.00077
31.50000,-0.05243,-0.00548
31.60000,-0.05260,-0.00485
31.70000,-0.05277,-0.00259
31.80000,-0.05294,-0.00153
31.90000,-0.05311,-0.00180
32.00000,-0.05327,-0.00260
32.10000,-0.05344,-0.00172
32.20000,-0.05361,0.00221
32.30000,-0.05377,-0.00161
32.40000,-0.05394,-0.00354
32.50000,-0.05410,-0.00572
32.60000,-0.05427,-0.00404
32.70000,-0.05444,-0.00169
32.80000,-0.05460,-0.00575
32.90000,-0.05478,-0.00074
33.00000,-0.05494,-0.00027
33.10000,-0.05511,-0.00251
33.20000,-0.05528,-0.00413
33.30000,-0.05545,-0.00663
33.40000,-0.05561,-0.00292
33.50000,-0.05577,0.00150
33.60000,-0.05594,-0.00064
33.70000,-0.05610,-0.00195
33.80000,-0.05627,-0.00157
33.90000,-0.05643,-0.00302
34.00000,-0.05660,-0.00174
34.10000,-0.05677,-0.00168
34.20000,-0.05694,-0.00497
34.30000,-0.05711,-0.00606
34.40000,-0.05728,-0.00399
34.50000,-0.05745,-0.00441
34.60000,-0.05761,-0.00031
34.70000,-0.05777,-0.00033
34.80000,-0.05794,-0.00220
34.90000,-0.05810,-0.00255
35.00000,-0.05828,-0.00318
35.10000,-0.05844,-0.00547
35.20000,-0.05861,-0.00704
35.30000,-0.05878,0.00080
35.40000,-0.05895,-0.00060
35.50000,-0.05912,-0.00244
35.60000,-0.05927,-0.00193
35.70000,-0.05945,-0.00252
35.80000,-0.05961,-0.00256
35.90000,-0.05977,-0.00092
36.00000,-0.05995,-0.00630
36.10000,-0.06011,-0.00859
36.20000,-0.06028,-0.00201
36.30000,-0.06044,-0.00120
36.40000,-0.06061,-0.00291
36.50000,-0.06078,-0.00586
36.60000,-0.06095,0.00064
36.70000,-0.06112,-0.00111
36.80000,-0.06128,-0.00164
36.90000,-0.06145,-0.00503
37.00000,-0.06161,-0.00674
37.10000,-0.06177,-0.00231
37.20000,-0.06194,-0.00071
37.30000,-0.06211,-0.00148
37.40000,-0.06228,-0.00297
37.50000,-0.06244,-0.00595
37.60000,-0.06262,-0.00143
37.70000,-0.06278,-0.00185
37.80000,-0.06295,-0.00440
37.90000,-0.06312,-0.00500
38.00000,-0.06328,-0.00246
38.10000,-0.06345,-0.00079
38.20000,-0.06361,0.00120
38.30000,-0.06378,0.00005
38.40000,-0.06394,-0.00392
38.50000,-0.06411,-0.00221
38.60000,-0.06427,-0.00466
38.70000,-0.06444,-0.00761
38.80000,-0.06461,-0.00724
38.90000,-0.06478,-0.00191
39.00000,-0.06494,-0.00595
39.10000,-0.06511,-0.00264
39.20000,-0.06527,-0.00312
39.30000,-0.06544,-0.00286
39.40000,-0.06560,-0.00143
39.50000,-0.06577,-0.00152
39.60000,-0.06594,-0.00510
39.70000,-0.06610,-0.00805
39.80000,-0.06627,-0.00349
39.90000,-0.06643,-0.00147
40.00000,-0.06660,-0.00200
40.10000,-0.06677,-0.00084
40.20000,-0.06694,-0.00348
40.30000,-0.06711,-0.00432
40.40000,-0.06727,-0.00412
40.50000,-0.06744,-0.00662
40.60000,-0.06760,-0.00878
40.70000,-0.06777,-0.00106
40.80000,-0.06794,-0.00029
40.90000,-0.06810,-0.00111
41.00000,-0.06827,-0.00448
41.10000,-0.06844,-0.00586
41.20000,-0.06860,0.00034
41.30000,-0.06877,-0.00260
41.40000,-0.06893,-0.00563
41.50000,-0.06911,-0.00623
41.60000,-0.06927,-0.00267
41.70000,-0.06944,0.00271
41.80000,-0.06960,-0.00266
41.90000,-0.06977,-0.00167
42.00000,-0.06993,-0.00326
42.10000,-0.07010,-0.00074
42.20000,-0.07027,-0.00364
42.30000,-0.07043,-0.00795
42.40000,-0.07060,-0.00399
42.50000,-0.07077,0.00066
42.60000,-0.07093,-0.00244
42.70000,-0.07110,-0.00064
42.80000,-0.07127,-0.00132
42.90000,-0.07144,-0.00270
43.00000,-0.07161,-0.00327
43.10000,-0.07177,-0.00154
43.20000,-0.07194,-0.00548
43.30000,-0.07210,-0.00623
43.40000,-0.07227,-0.00296
43.50000,-0.07243,-0.00173
43.60000,-0.07260,-0.00132
43.70000,-0.07277,-0.00466
43.80000,-0.07294,0.00021
43.90000,-0.07311,-0.00325
44.00000,-0.07327,-0.00309
44.10000,-0.07344,-0.00631
44.20000,-0.07361,-0.01138
44.30000,-0.07377,0.00013
44.40000,-0.07394,0.00050
44.50000,-0.07410,-0.00306
44.60000,-0.07427,-0.00311
44.70000,-0.07444,-0.00496
44.80000,-0.07461,-0.00433
44.90000,-0.07478,-0.00406
45.00000,-0.07495,-0.00580
45.10000,-0.07511,-0.00593
45.20000,-0.07528,0.00010
45.30000,-0.07545,0.00072
45.40000,-0.07560,-0.00379
45.50000,-0.07577,0.00275
45.60000,-0.07594,-0.00183
45.70000,-0.07610,0.00001
45.80000,-0.07627,-0.00065
45.90000,-0.07643,-0.00740
46.00000,-0.07660,-0.00292
46.10000,-0.07676,-0.00203
46.20000,-0.07694,-0.00260
46.30000,-0.07710,0.00128
46.40000,-0.07727,-0.00134
46.50000,-0.07744,-0.00402
46.60000,-0.07760,0.00028
46.70000,-0.07777,-0.00317
46.80000,-0.07794,-0.00410
46.90000,-0.07810,-0.00692
47.00000,-0.07827,-0.00043
47.10000,-0.07844,-0.00072
47.20000,-0.07861,-0.00233
47.30000,-0.07877,-0.00371
47.40000,-0.07894,-0.00336
47.50000,-0.07911,-0.00340
47.60000,-0.07928,-0.00061
47.70000,-0.07944,-0.00745
47.80000,-0.07961,-0.00768
47.90000,-0.07977,-0.00345
48.00000,-0.07994,-0.00382
48.10000,-0.08010,-0.00350
48.20000,-0.08027,0.00116
48.30000,-0.08043,-0.00117
48.40000,-0.08060,-0.00309
48.50000,-0.08077,-0.00604
48.60000,-0.08094,-0.00467
48.70000,-0.08111,-0.00570
48.80000,-0.08127,-0.00516
48.90000,-0.08145,0.00022
49.00000,-0.08160,0.00182
49.10000,-0.08178,-0.00215
49.20000,-0.08193,-0.00601
49.30000,-0.08210,-0.00004
49.40000,-0.08227,-0.00302
49.50000,-0.08243,-0.00811
49.60000,-0.08260,-0.00394
49.70000,-0.08277,-0.00138
49.80000,-0.08294,0.00197
49.90000,-0.08311,-0.00455
50.00000,-0.08327,-0.00453
50.10000,-0.08343,-0.00158
50.20000,-0.08360,-0.00397
50.30000,-0.08377,0.00232
50.40000,-0.08394,-0.00874
50.50000,-0.08410,-0.00724
50.60000,-0.08427,0.00067
50.70000,-0.08443,-0.00693
50.80000,-0.08460,-0.00266
50.90000,-0.08477,-0.00222
51.00000,-0.08494,-0.00071
51.10000,-0.08511,-0.00384
51.20000,-0.08526,-0.00329
51.30000,-0.08544,-0.00719
51.40000,-0.08560,-0.00639
51.50000,-0.08577,-0.00258
51.60000,-0.08593,-0.00575
51.70000,-0.08610,-0.00134
51.80000,-0.08627,-0.00389
51.90000,-0.08643,-0.00228
52.00000,-0.08660,-0.00112
52.10000,-0.08676,-0.00213
52.20000,-0.08694,-0.00632
52.30000,-0.08710,-0.00834
52.40000,-0.08727,-0.00281
52.50000,-0.08744,0.00040
52.60000,-0.08760,-0.00086
52.70000,-0.08777,-0.00318
52.80000,-0.08794,0.00196
52.90000,-0.08810,-0.00171
53.00000,-0.08827,-0.00304
53.10000,-0.08843,-0.00876
53.20000,-0.08860,-0.00879
53.30000,-0.08876,-0.00114
53.40000,-0.08894,-0.00304
53.50000,-0.08911,-0.00035
53.60000,-0.08927,-0.00554
53.70000,-0.08944,-0.00033
53.80000,-0.08960,-0.00197
53.90000,-0.08977,-0.00095
54.00000,-0.08994,-0.00983
54.10000,-0.09009,-0.00597
54.20000,-0.09027,-0.00348
54.30000,-0.09043,-0.00378
54.40000,-0.09060,-0.00127
54.50000,-0.09077,-0.00454
54.60000,-0.09094,-0.00322
54.70000,-0.09111,-0.00075
54.80000,-0.09127,-0.00175
54.90000,-0.09144,-0.00558
55.00000,-0.09160,-0.00931
55.10000,-0.09177,0.00006
55.20000,-0.09194,-0.00245
55.30000,-0.09210,0.00109
55.40000,-0.09227,-0.00047
55.50000,-0.09243,-0.00165
55.60000,-0.09261,-0.00101
55.70000,-0.09277,-0.00508
55.80000,-0.09294,-0.00621
55.90000,-0.09311,-0.00585
56.00000,-0.09327,-0.00098
56.10000,-0.09344,0.00172
56.20000,-0.09360,0.00108
56.30000,-0.09378,0.00255
56.40000,-0.09394,0.00110
56.50000,-0.09411,-0.00127
56.60000,-0.09427,-0.00216
56.70000,-0.09444,-0.00703
56.80000,-0.09461,-0.00351
56.90000,-0.09478,-0.00381
57.00000,-0.09495,-0.00059
57.10000,-0.09511,0.00316
57.20000,-0.09527,-0.00102
57.30000,-0.09544,0.00178
57.40000,-0.09560,-0.00053
57.50000,-0.09577,-0.00014
57.60000,-0.09594,-0.00520
57.70000,-0.09611,-0.00329
57.80000,-0.09627,0.00205
57.90000,-0.09644,-0.00073
58.00000,-0.09661,-0.00052
58.10000,-0.09677,-0.00054
58.20000,-0.09694,0.00051
58.30000,-0.09711,0.00087
58.40000,-0.09728,-0.00204
58.50000,-0.09744,-0.00652
58.60000,-0.09761,-0.00263
58.70000,-0.09778,0.00232
58.80000,-0.09794,-0.00248
58.90000,-0.09811,0.00467
59.00000,-0.09827,0.00438
59.10000,-0.09843,0.00123
59.20000,-0.09860,0.00015
59.30000,-0.09877,-0.00020
59.40000,-0.09894,-0.00176
59.50000,-0.09911,-0.00125
59.60000,-0.09928,0.00052
59.70000,-0.09944,-0.00013
59.80000,-0.09960,0.00072
59.90000,-0.09977,0.00245
60.00000,-0.09993,0.00242
60.10000,-0.10010,0.00006
60.20000,-0.10027,0.00101
60.30000,-0.10043,-0.00548
60.40000,-0.10060,-0.00110
60.50000,-0.10077,0.00174
60.60000,-0.10094,0.00065
60.70000,-0.10110,0.00251
60.80000,-0.10127,0.00091
60.90000,-0.10144,0.00386
61.00000,-0.10160,0.00228
61.10000,-0.10177,-0.00093
61.20000,-0.10193,-0.00245
61.30000,-0.10210,-0.00156
61.40000,-0.10227,-0.00052
61.50000,-0.10243,0.00330
61.60000,-0.10260,-0.00126
61.70000,-0.10277,-0.00055
61.80000,-0.10294,0.00260
61.90000,-0.10310,0.00088
62.00000,-0.10327,-0.00134
62.10000,-0.10344,-0.00482
62.20000,-0.10360,-0.00245
62.30000,-0.10377,0.00142
62.40000,-0.10393,0.00148
62.50000,-0.10410,-0.00369
62.60000,-0.10427,0.00285
62.70000,-0.10443,0.00191
62.80000,-0.10460,0.00335
62.90000,-0.10477,-0.00272
63.00000,-0.10494,-0.00137
63.10000,-0.10511,-0.00025
63.20000,-0.10528,-0.00043
63.30000,-0.10543,0.00226
63.40000,-0.10560,0.00136
63.50000,-0.10577,0.00125
63.60000,-0.10594,0.00058
63.70000,-0.10610,0.00094
63.80000,-0.10627,-0.00037
63.90000,-0.10644,-0.00301
64.00000,-0.10660,0.00276
64.10000,-0.10677,0.00235
64.20000,-0.10694,-0.00116
64.30000,-0.10711,0.00109
64.40000,-0.10728,0.00436
64.50000,-0.10744,0.00036
64.60000,-0.10760,-0.00050
64.70000,-0.10778,-0.00104
64.80000,-0.10794,-0.00312
64.90000,-0.10810,-0.00007
65.00000,-0.10827,-0.00127
65.10000,-0.10843,0.00180
65.20000,-0.10860,0.00085
65.30000,-0.10877,0.00440
65.40000,-0.10894,0.00012
65.50000,-0.10910,0.00266
65.60000,-0.10928,-0.00377
65.70000,-0.10944,-0.00303
65.79999,-0.10960,0.00085
65.90000,-0.10977,0.00181
66.00000,-0.10994,-0.00173
66.10000,-0.11011,0.00140
66.20000,-0.11027,0.00080
66.29999,-0.11044,0.00079
66.40000,-0.11061,-0.00132
66.50000,-0.11078,-0.00005
66.60000,-0.11094,-0.00345
66.70000,-0.11111,0.00394
66.79999,-0.11128,0.00159
66.90000,-0.11144,0.00189
67.00000,-0.11160,0.00641
67.10000,-0.11177,0.00444
67.20000,-0.11194,0.00250
67.29999,-0.11211,0.00014
67.40000,-0.11227,-0.00087
67.50000,-0.11243,-0.00256
67.60000,-0.11260,0.00375
67.70000,-0.11277,0.00197
67.79999,-0.11294,0.00289
67.90000,-0.11311,0.00419
68.00000,-0.11327,0.00007
68.10000,-0.11344,0.00396
68.20000,-0.11360,0.00113
68.29999,-0.11377,-0.00367
68.40000,-0.11393,-0.00147
68.50000,-0.11411,0.00138
68.60000,-0.11427,-0.00045
68.70000,-0.11444,-0.00055
68.79999,-0.11460,0.00176
68.90000,-0.11477,0.00363
69.00000,-0.11494,0.00427
69.10000,-0.11511,0.00561
69.20000,-0.11528,0.00142
69.29999,-0.11544,-0.00744
69.40000,-0.11561,0.00144
69.50000,-0.11577,0.00324
69.60000,-0.11593,-0.00025
69.70000,-0.11610,-0.00048
69.79999,-0.11627,-0.00004
69.90000,-0.11643,0.00429
70.00000,-0.11660,-0.00001
70.10000,-0.11676,0.00067
70.20000,-0.11693,-0.00325
70.29999,-0.11710,0.00334
70.40000,-0.11727,0.00273
70.50000,-0.11743,0.00245
70.60000,-0.11760,-0.00042
70.70000,-0.11777,0.00108
70.79999,-0.11792,0.00402
70.90000,-0.11809,-0.00224
71.00000,-0.11826,-0.00126
71.10000,-0.11843,-0.00467
71.20000,-0.11859,0.00252
71.29999,-0.11876,-0.00245
71.40000,-0.11893,0.00031
71.50000,-0.11910,-0.00022
71.60000,-0.11927,0.00272
71.70000,-0.11943,-0.00072
71.79999,-0.11960,0.00104
71.90000,-0.11977,-0.00398
72.00000,-0.11993,-0.00318
72.10000,-0.12010,0.00207
72.20000,-0.12026,0.00027
72.29999,-0.12043,0.00052
72.40000,-0.12059,0.00336
72.50000,-0.12076,0.00290
72.60000,-0.12093,0.00151
72.70000,-0.12110,-0.00022
72.79999,-0.12127,0.00012
72.90000,-0.12143,-0.00154
73.00000,-0.12159,0.00195
73.10000,-0.12176,0.00386
73.20000,-0.12193,0.00151
73.29999,-0.12210,0.00529
73.40000,-0.12226,0.00248
73.50000,-0.12243,0.00114
73.60000,-0.12260,0.00105
73.70000,-0.12276,0.00058
73.79999,-0.12294,0.00088
73.90000,-0.12310,0.00026
74.00000,-0.12327,0.00253
74.10000,-0.12344,-0.00282
74.20000,-0.12360,0.00278
74.29999,-0.12377,0.00377
74.40000,-0.12393,0.00290
74.50000,-0.12410,0.00051
74.60000,-0.12426,-0.00071
74.70000,-0.12443,-0.00364
74.79999,-0.12460,0.00075
74.90000,-0.12477,0.00446
75.00000,-0.12494,-0.00206
75.10000,-0.12511,0.00342
75.20000,-0.12528,0.00296
75.29999,-0.12544,0.00166
75.40000,-0.12561,0.00377
75.50000,-0.12577,-0.00523
75.60000,-0.12593,-0.00127
75.70000,-0.12610,0.00503
75.79999,-0.12627,0.00403
75.90000,-0.12644,0.00071
76.00000,-0.12660,0.00101
76.10000,-0.12677,0.00329
76.20000,-0.12694,0.00136
76.29999,-0.12710,0.00204
76.40000,-0.12727,-0.00280
76.50000,-0.12744,-0.00030
76.60000,-0.12760,0.00427
76.70000,-0.12777,0.00248
76.79999,-0.12793,0.00197
76.90000,-0.12810,0.00347
77.00000,-0.12827,-0.00137
77.10000,-0.12843,-0.00364
77.20000,-0.12860,-0.01530
77.29999,-0.12876,-0.02091
77.40000,-0.12894,-0.03226
77.50000,-0.12910,-0.04585
77.60000,-0.12927,-0.06109
77.70000,-0.12943,-0.07819
77.79999,-0.12960,-0.09571
77.90000,-0.12976,-0.11954
78.00000,-0.12993,-0.14769
78.10000,-0.13010,-0.18101
78.20000,-0.13026,-0.21267
78.29999,-0.13043,-0.25159
78.40000,-0.13060,-0.29162
78.50000,-0.13077,-0.33284
78.60000,-0.13094,-0.37958
78.70000,-0.13110,-0.41998
78.79999,-0.13127,-0.47152
78.90000,-0.13143,-0.51335
79.00000,-0.13160,-0.56852
79.10000,-0.13177,-0.62196
79.20000,-0.13193,-0.67501
79.29999,-0.13210,-0.72779
79.40000,-0.13226,-0.78545
79.50000,-0.13243,-0.85547
79.60000,-0.13260,-0.91284
79.70000,-0.13277,-0.96937
79.79999,-0.13294,-1.02287
79.90000,-0.13311,-1.05680
80.00000,-0.13328,-1.10580
80.10000,-0.13344,-1.16162
80.20000,-0.13361,-1.22356
80.21480,-0.13363,-1.22769
80.29999,-0.13377,-1.23080
80.40000,-0.13394,-1.30485
80.50000,-0.13410,-1.38042
80.60000,-0.13427,-1.44673
80.70000,-0.13444,-1.49652
80.79999,-0.13460,-1.57818
80.90000,-0.13477,-1.63236
81.00000,-0.13494,-1.71449
81.10000,-0.13510,-1.77531
81.20000,-0.13527,-1.84720
81.29999,-0.13543,-1.91672
81.40000,-0.13560,-1.93418
81.50000,-0.13576,-1.97813
81.60000,-0.13592,-2.04168
81.70000,-0.13609,-2.11972
81.79999,-0.13626,-1.81742
81.90000,-0.13643,-1.73548
82.00000,-0.13660,-1.20298
82.10000,-0.13676,-0.93922
82.20000,-0.13693,-0.83977
82.29999,-0.13709,-0.80336
82.40000,-0.13726,-0.82393
82.50000,-0.13743,-0.86371
82.60000,-0.13759,-0.91711
82.70000,-0.13776,-0.97271
82.79999,-0.13792,-1.03369
82.90000,-0.13808,-1.09313
83.00000,-0.13825,-1.14846
83.10000,-0.13842,-1.17395
83.20000,-0.13859,-1.19565
83.29999,-0.13876,-1.27022
83.40000,-0.13893,-1.34942
83.50000,-0.13909,-1.41255
83.60000,-0.13927,-1.49025
83.70000,-0.13943,-1.56303
83.79999,-0.13960,-1.43474
83.90000,-0.13977,-1.47642
84.00000,-0.13993,-1.54103
84.10000,-0.14010,-1.61743
84.20000,-0.14026,-1.69688
84.29999,-0.14043,-1.77731
84.40000,-0.14060,-1.83309
84.50000,-0.14077,-1.90335
84.60000,-0.14094,-1.96704
84.70000,-0.14110,-2.01874
84.79999,-0.14127,-2.09087
84.90000,-0.14143,-2.16292
85.00000,-0.14161,-2.21545
85.10000,-0.14177,-2.29331
85.20000,-0.14193,-2.35396
85.28680,-0.14208,-2.42223
85.29999,-0.14210,-2.44400
85.40000,-0.14226,-2.52722
85.50000,-0.14244,-2.61956
85.60000,-0.14260,-2.69321
85.70000,-0.14277,-2.78243
85.79999,-0.14294,-2.86648
85.90000,-0.14310,-2.92948
86.00000,-0.14327,-3.00323
86.10000,-0.14344,-3.07348
86.20000,-0.14361,-3.16317
86.29999,-0.14377,-3.24319
86.40000,-0.14394,-3.32216
86.50000,-0.14410,-3.40013
86.60000,-0.14426,-3.49271
86.70000,-0.14444,-3.60862
86.79999,-0.14460,-3.72034
86.80980,-0.14462,-3.72773
86.90000,-0.14478,-3.82452
87.00000,-0.14494,-3.92075
87.10000,-0.14511,-4.00199
87.20000,-0.14527,-4.08928
87.29999,-0.14544,-4.16729
87.40000,-0.14560,-4.22898
87.50000,-0.14577,-4.31861
87.60000,-0.14593,-4.39638
87.70000,-0.14610,-4.49527
87.79999,-0.14626,-4.60898
87.90000,-0.14643,-4.71365
88.00000,-0.14660,-4.81824
88.10000,-0.14677,-4.88430
88.15780,-0.14687,-4.92914
88.20000,-0.14694,-4.98288
88.29999,-0.14710,-5.05060
88.40000,-0.14727,-5.14895
88.50000,-0.14743,-5.24397
88.60000,-0.14760,-5.34010
88.70000,-0.14777,-5.44436
88.79999,-0.14794,-5.52136
88.90000,-0.14810,-5.60596
89.00000,-0.14826,-5.70623
89.10000,-0.14843,-5.80415
89.20000,-0.14860,-5.91183
89.29999,-0.14877,-5.97284
89.40000,-0.14894,-6.08181
89.50000,-0.14910,-6.18404
89.52780,-0.14915,-6.18450
89.60000,-0.14927,-6.29024
89.70000,-0.14943,-6.38896
89.79999,-0.14960,-6.49783
89.90000,-0.14976,-6.60573
90.00000,-0.14993,-6.70862
90.10000,-0.15009,-6.81370
90.20000,-0.15025,-6.94428
90.29999,-0.15043,-7.07623
90.40000,-0.15059,-7.21098
90.50000,-0.15076,-7.32669
90.60000,-0.15093,-7.43044
90.63780,-0.15099,-7.43381
90.70000,-0.15109,-7.52915
90.79999,-0.15126,-7.62604
90.89999,-0.15143,-7.69468
91.00000,-0.15160,-7.77579
91.10000,-0.15176,-7.88740
91.20000,-0.15193,-7.96802
91.29999,-0.15209,-8.08197
91.39999,-0.15225,-8.19495
91.50000,-0.15242,-8.32313
91.60000,-0.15259,-8.45527
91.70000,-0.15276,-8.56601
91.78980,-0.15291,-8.67267
91.79999,-0.15293,-8.68873
91.89999,-0.15310,-8.77095
92.00000,-0.15326,-8.88438
92.10000,-0.15343,-8.97249
92.20000,-0.15360,-9.07123
92.29999,-0.15376,-9.18476
92.39999,-0.15393,-9.28446
92.50000,-0.15409,-9.40558
92.60000,-0.15426,-9.53211
92.70000,-0.15443,-9.68381
92.79999,-0.15459,-9.80072
92.89999,-0.15476,-9.91142
92.94180,-0.15483,-9.98158
93.00000,-0.15493,-10.04005
93.10000,-0.15510,-10.13903
93.20000,-0.15526,-10.24756
93.29999,-0.15543,-10.35262
93.39999,-0.15560,-10.45257
93.50000,-0.15576,-10.55935
93.60000,-0.15593,-10.66648
93.70000,-0.15610,-10.78257
93.79999,-0.15626,-10.92343
93.89999,-0.15643,-11.05069
93.98380,-0.15657,-11.16040
94.00000,-0.15659,-11.19698
94.10000,-0.15676,-11.31307
94.20000,-0.15693,-11.43323
94.29999,-0.15710,-11.53949
94.39999,-0.15727,-11.64849
94.50000,-0.15743,-11.75468
94.60000,-0.15760,-11.84081
94.70000,-0.15776,-11.95930
94.79999,-0.15793,-12.06269
94.89999,-0.15809,-12.20177
95.00000,-0.15826,-12.34298
95.02280,-0.15830,-12.37302
95.10000,-0.15843,-12.48821
95.20000,-0.15859,-12.64306
95.29999,-0.15876,-12.77966
95.39999,-0.15893,-12.92740
95.50000,-0.15910,-13.04403
95.60000,-0.15927,-13.18708
95.70000,-0.15943,-13.32140
95.79999,-0.15960,-13.46099
95.89999,-0.15976,-13.60999
95.97080,-0.15988,-13.71754
96.00000,-0.15993,-13.76218
96.10000,-0.16009,-13.91784
96.20000,-0.16026,-14.09012
96.29999,-0.16043,-14.26644
96.39999,-0.16059,-14.45990
96.50000,-0.16076,-14.65378
96.60000,-0.16093,-14.81441
96.66180,-0.16103,-14.91204
96.70000,-0.16110,-14.98165
96.79999,-0.16126,-15.11655
96.89999,-0.16143,-15.28180
97.00000,-0.16160,-15.43830
97.10000,-0.16176,-15.61348
97.20000,-0.16193,-15.79247
97.29999,-0.16209,-15.96492
97.36180,-0.16219,-16.08893
97.39999,-0.16226,-16.17970
97.50000,-0.16243,-16.36899
97.60000,-0.16259,-16.58768
97.70000,-0.16276,-16.76804
97.79999,-0.16293,-16.95883
97.89999,-0.16310,-17.14094
98.00000,-0.16327,-17.29977
98.06080,-0.16337,-17.38937
98.10000,-0.16343,-17.48011
98.20000,-0.16360,-17.62403
98.29999,-0.16376,-17.80272
98.39999,-0.16393,-17.97575
98.50000,-0.16409,-18.17073
98.60000,-0.16426,-18.35506
98.70000,-0.16443,-18.56919
98.73680,-0.16449,-18.65277
98.79999,-0.16459,-18.79887
98.89999,-0.16477,-19.01438
99.00000,-0.16493,-19.20255
99.10000,-0.16510,-19.37074
99.20000,-0.16526,-19.53876
99.29999,-0.16543,-19.71045
99.39999,-0.16560,-19.88943
99.44580,-0.16567,-19.94921
99.50000,-0.16576,-20.06365
99.60000,-0.16593,-20.25183
99.70000,-0.16609,-20.42924
99.79999,-0.16625,-20.64900
99.89999,-0.16642,-20.84283
100.00000,-0.16658,-21.06061
100.03580,-0.16665,-21.12804
100.10000,-0.16676,-21.26282
100.20000,-0.16692,-21.44366
100.29999,-0.16709,-21.62155
100.39999,-0.16726,-21.77025
100.50000,-0.16742,-21.94413
100.60000,-0.16759,-22.08243
100.70000,-0.16776,-22.27013
100.76480,-0.16787,-22.36642
100.79999,-0.16793,-22.43533
100.89999,-0.16809,-22.60696
101.00000,-0.16825,-22.82431
101.10000,-0.16842,-23.03045
101.20000,-0.16859,-23.27571
101.29999,-0.16876,-23.46128
101.39999,-0.16892,-23.66036
101.40780,-0.16894,-23.66689
101.50000,-0.16910,-23.84207
101.60000,-0.16926,-24.01008
101.70000,-0.16942,-24.19105
101.79999,-0.16959,-24.34938
101.89999,-0.16976,-24.55034
102.00000,-0.16992,-24.72485
102.10000,-0.17009,-24.92334
102.12080,-0.17012,-24.95637
102.20000,-0.17025,-25.13908
102.29999,-0.17042,-25.35398
102.39999,-0.17059,-25.59346
102.50000,-0.17076,-25.82510
102.60000,-0.17092,-26.00064
102.68480,-0.17107,-26.14191
102.70000,-0.17109,-26.18579
102.79999,-0.17126,-26.35974
102.89999,-0.17142,-26.52824
103.00000,-0.17160,-26.70811
103.10000,-0.17176,-26.87754
103.20000,-0.17193,-27.09147
103.29999,-0.17209,-27.26744
103.32880,-0.17214,-27.33095
103.39999,-0.17226,-27.49275
103.50000,-0.17242,-27.70537
103.60000,-0.17259,-27.93718
103.70000,-0.17276,-28.15157
103.79999,-0.17293,-28.34707
103.89999,-0.17309,-28.53830
103.94480,-0.17317,-28.60045
104.00000,-0.17326,-28.70282
104.10000,-0.17342,-28.89931
104.20000,-0.17360,-29.06468
104.29999,-0.17376,-29.25082
104.39999,-0.17393,-29.42797
104.50000,-0.17409,-29.62413
104.60000,-0.17425,-29.83966
104.61680,-0.17428,-29.87489
104.70000,-0.17442,-30.05598
104.79999,-0.17459,-30.29418
104.89999,-0.17476,-30.49373
105.00000,-0.17492,-30.69640
105.10000,-0.17510,-30.89462
105.20000,-0.17526,-31.09041
105.27680,-0.17539,-31.22282
105.29999,-0.17542,-31.25681
105.39999,-0.17560,-31.45620
105.50000,-0.17576,-31.61900
105.60000,-0.17593,-31.80251
105.70000,-0.17609,-32.00990
105.79999,-0.17626,-32.22648
105.86580,-0.17637,-32.39872
105.89999,-0.17642,-32.46545
106.00000,-0.17659,-32.69757
106.10000,-0.17676,-32.92260
106.20000,-0.17693,-33.13098
106.29999,-0.17710,-33.31351
106.39999,-0.17726,-33.49043
106.45180,-0.17735,-33.61351
106.50000,-0.17743,-33.67675
106.60000,-0.17760,-33.85254
106.70000,-0.17776,-34.03147
106.79999,-0.17793,-34.26894
106.89999,-0.17809,-34.46019
107.00000,-0.17826,-34.71349
107.07180,-0.17838,-34.84405
107.10000,-0.17843,-34.90758
107.20000,-0.17859,-35.14750
107.29999,-0.17876,-35.35277
107.39999,-0.17893,-35.56115
107.50000,-0.17910,-35.76956
107.60000,-0.17927,-35.93811
107.70000,-0.17944,-36.13107
107.71580,-0.17946,-36.14416
107.79999,-0.17960,-36.30234
107.89999,-0.17977,-36.49745
108.00000,-0.17993,-36.67604
108.10000,-0.18009,-36.86073
108.20000,-0.18026,-37.07492
108.29999,-0.18043,-37.29461
108.36880,-0.18054,-37.44731
108.39999,-0.18059,-37.51191
108.50000,-0.18077,-37.72696
108.60000,-0.18093,-37.92840
108.70000,-0.18110,-38.10060
108.79999,-0.18126,-38.26785
108.89999,-0.18143,-38.42680
109.00000,-0.18159,-38.59396
109.01680,-0.18162,-38.60186
109.10000,-0.18176,-38.78433
109.20000,-0.18193,-38.95394
109.29999,-0.18209,-39.15773
109.39999,-0.18226,-39.37703
109.50000,-0.18243,-39.61864
109.57680,-0.18255,-39.71235
109.60000,-0.18259,-39.84220
109.70000,-0.18276,-40.04817
109.79999,-0.18293,-40.18434
109.89999,-0.18310,-40.35270
110.00000,-0.18326,-40.48236
110.10000,-0.18343,-40.64008
110.20000,-0.18359,-40.79085
110.29999,-0.18376,-40.94519
110.38980,-0.18391,-41.06792
110.39999,-0.18393,-41.11486
110.50000,-0.18409,-41.28567
110.60000,-0.18426,-41.49434
110.70000,-0.18442,-41.70648
110.79999,-0.18459,-41.94017
110.89999,-0.18476,-42.12961
111.00000,-0.18493,-42.30837
111.03280,-0.18498,-42.37769
111.10000,-0.18510,-42.49482
111.20000,-0.18526,-42.64208
111.29999,-0.18543,-42.81507
111.39999,-0.18559,-42.97839
111.50000,-0.18576,-43.14623
111.60000,-0.18593,-43.30671
111.70000,-0.18609,-43.49448
111.79999,-0.18626,-43.68392
111.80080,-0.18626,-43.68528
111.89999,-0.18643,-43.89973
112.00000,-0.18659,-44.08702
112.10000,-0.18676,-44.27473
112.20000,-0.18693,-44.43162
112.29999,-0.18710,-44.58105
112.39999,-0.18726,-44.73959
112.50000,-0.18743,-44.87425
112.50380,-0.18743,-44.87745
112.60000,-0.18760,-45.03786
112.70000,-0.18776,-45.16027
112.79999,-0.18793,-45.32330
112.89999,-0.18809,-45.46181
113.00000,-0.18826,-45.63656
113.10000,-0.18843,-45.81336
113.20000,-0.18859,-45.97076
113.28880,-0.18875,-46.10268
113.29999,-0.18877,-46.13151
113.39999,-0.18893,-46.21666
113.50000,-0.18910,-46.31585
113.60000,-0.18926,-46.37013
113.70000,-0.18943,-46.45615
113.79999,-0.18959,-46.53486
113.89999,-0.18976,-46.61535
114.00000,-0.18993,-46.72230
114.10000,-0.19009,-46.82532
114.20000,-0.19026,-46.92687
114.29999,-0.19043,-47.02623
114.39999,-0.19059,-47.13232
114.50000,-0.19077,-47.20782
114.60000,-0.19093,-47.27415
114.70000,-0.19110,-47.31534
114.79999,-0.19126,-47.37845
114.89999,-0.19143,-47.41434
114.95480,-0.19152,-47.43436
115.00000,-0.19160,-47.46971
115.10000,-0.19176,-47.52221
115.20000,-0.19193,-47.57825
115.29999,-0.19209,-47.66464
115.39999,-0.19226,-47.75213
115.50000,-0.19243,-47.87998
115.60000,-0.19259,-47.97522
115.70000,-0.19276,-48.09085
115.79999,-0.19293,-48.17068
115.89999,-0.19310,-48.25351
116.00000,-0.19327,-48.33381
116.10000,-0.19344,-48.40555
116.20000,-0.19360,-48.51675
116.29980,-0.19377,-48.60591
116.29999,-0.19377,-48.60591
116.39999,-0.19393,-48.75077
116.50000,-0.19409,-48.88469
116.60000,-0.19426,-49.06081
116.70000,-0.19442,-49.23953
116.79999,-0.19460,-49.43981
116.89999,-0.19476,-49.63332
117.00000,-0.19494,-49.80492
117.08480,-0.19508,-49.93125
117.10000,-0.19510,-49.96109
117.20000,-0.19526,-50.08639
117.29999,-0.19543,-50.24230
117.39999,-0.19559,-50.40636
117.50000,-0.19576,-50.56275
117.60000,-0.19593,-50.73251
117.70000,-0.19609,-50.89720
117.79999,-0.19626,-51.07516
117.85580,-0.19635,-51.19441
117.89999,-0.19642,-51.28675
118.00000,-0.19660,-51.51139
118.10000,-0.19676,-51.70219
118.20000,-0.19694,-51.89035
118.29999,-0.19710,-52.02420
118.39999,-0.19726,-52.18523
118.50000,-0.19743,-52.31639
118.52680,-0.19748,-52.35016
118.60000,-0.19759,-52.48152
118.70000,-0.19776,-52.63980
118.79999,-0.19793,-52.79949
118.89999,-0.19809,-52.98455
119.00000,-0.19826,-53.15445
119.10000,-0.19842,-53.36604
119.20000,-0.19860,-53.54566
119.22780,-0.19864,-53.60612
119.29999,-0.19876,-53.73992
119.39999,-0.19893,-53.89229
119.50000,-0.19909,-54.03412
119.60000,-0.19925,-54.17231
119.70000,-0.19943,-54.31214
119.79999,-0.19959,-54.47526
119.89999,-0.19976,-54.60608
120.00000,-0.19992,-54.76492
120.09480,-0.20008,-54.89972
120.10000,-0.20008,-54.91132
120.20000,-0.20025,-55.09574
120.29999,-0.20042,-55.28133
120.39999,-0.20059,-55.49962
120.50000,-0.20076,-55.66882
120.60000,-0.20093,-55.83429
120.70000,-0.20109,-55.96438
120.79999,-0.20126,-56.08971
120.86780,-0.20138,-56.20807
120.89999,-0.20143,-56.24001
121.00000,-0.20159,-56.35688
121.10000,-0.20176,-56.52127
121.20000,-0.20192,-56.65596
121.29999,-0.20209,-56.83347
121.39999,-0.20226,-57.00010
121.50000,-0.20242,-57.18308
121.59480,-0.20258,-57.34299
121.60000,-0.20259,-57.36095
121.70000,-0.20276,-57.52446
121.79999,-0.20293,-57.69198
121.89999,-0.20310,-57.82391
122.00000,-0.20326,-57.97854
122.10000,-0.20343,-58.08887
122.20000,-0.20359,-58.24797
122.29999,-0.20376,-58.37616
122.39999,-0.20392,-58.51586
122.46280,-0.20403,-58.58458
122.50000,-0.20409,-58.67757
122.60000,-0.20425,-58.82569
122.70000,-0.20442,-59.04061
122.79999,-0.20459,-59.22050
122.89999,-0.20476,-59.40496
123.00000,-0.20493,-59.55604
123.10000,-0.20510,-59.70857
123.20000,-0.20526,-59.85191
123.25080,-0.20535,-59.91505
123.29999,-0.20543,-59.97681
123.39999,-0.20559,-60.13271
123.50000,-0.20576,-60.26438
123.60000,-0.20593,-60.42247
123.70000,-0.20609,-60.59030
123.79999,-0.20626,-60.76044
123.89999,-0.20642,-60.95853
124.00000,-0.20659,-61.16303
124.01680,-0.20662,-61.19154
124.10000,-0.20676,-61.33892
124.20000,-0.20693,-61.50689
124.29999,-0.20710,-61.64125
124.39999,-0.20726,-61.78382
124.50000,-0.20743,-61.92816
124.60000,-0.20760,-62.09065
124.70000,-0.20776,-62.23834
124.77680,-0.20789,-62.35910
124.79999,-0.20793,-62.38916
124.89999,-0.20809,-62.57539
125.00000,-0.20826,-62.75056
125.10000,-0.20842,-62.95755
125.20000,-0.20859,-63.16567
125.29999,-0.20876,-63.36125
125.39999,-0.20893,-63.55121
125.44880,-0.20901,-63.58584
125.50000,-0.20910,-63.66594
125.60000,-0.20926,-63.82421
125.70000,-0.20943,-63.93190
125.79999,-0.20960,-64.09639
125.89999,-0.20976,-64.21759
126.00000,-0.20992,-64.37294
126.10000,-0.21009,-64.54439
126.20000,-0.21026,-64.71034
126.28680,-0.21041,-64.89176
126.29999,-0.21043,-64.93128
126.39999,-0.21059,-65.08456
126.50000,-0.21076,-65.27695
126.60000,-0.21093,-65.40881
126.70000,-0.21110,-65.55882
126.79999,-0.21126,-65.69343
126.89999,-0.21144,-65.83873
127.00000,-0.21160,-65.97560
127.10000,-0.21176,-66.11618
127.14080,-0.21183,-66.17592
127.20000,-0.21193,-66.25839
127.29999,-0.21209,-66.42575
127.39999,-0.21226,-66.59955
127.50000,-0.21243,-66.78795
127.60000,-0.21259,-66.97778
127.70000,-0.21276,-67.13312
127.79999,-0.21293,-67.27703
127.89999,-0.21310,-67.35471
127.95580,-0.21319,-67.38010
128.00000,-0.21326,-67.43079
128.04480,-0.21335,-67.31790
128.04579,-0.21337,-67.12500
128.04680,-0.21339,-66.76116
128.04779,-0.21341,-66.21183
128.04880,-0.21344,-65.48470
128.04979,-0.21346,-64.59576
128.05080,-0.21348,-63.56355
128.05180,-0.21350,-62.40528
128.05280,-0.21352,-61.13698
128.05380,-0.21354,-59.77505
128.05480,-0.21355,-58.33223
128.05580,-0.21357,-56.81595
128.05680,-0.21358,-55.23147
128.05780,-0.21360,-53.58377
128.05879,-0.21361,-51.87948
128.05980,-0.21363,-50.12745
128.06079,-0.21364,-48.33716
128.06180,-0.21366,-46.51839
128.06279,-0.21368,-44.68076
128.06380,-0.21370,-42.83276
128.06480,-0.21371,-40.98285
128.06580,-0.21373,-39.13958
128.06680,-0.21374,-37.31132
128.06780,-0.21376,-35.50665
128.06880,-0.21377,-33.73332
128.06980,-0.21379,-31.99705
128.07080,-0.21380,-30.30146
128.07179,-0.21381,-28.64783
128.07280,-0.21382,-27.03584
128.07379,-0.21384,-25.46516
128.07480,-0.21385,-23.93592
128.07579,-0.21386,-22.44868
128.07680,-0.21388,-21.00472
128.07779,-0.21389,-19.60540
128.07880,-0.21390,-18.25215
128.07980,-0.21392,-16.94645
128.08080,-0.21393,-15.68970
128.08180,-0.21394,-14.48346
128.08280,-0.21396,-13.32922
128.08380,-0.21397,-12.22798
128.08480,-0.21398,-11.18029
128.08580,-0.21399,-10.18667
128.08679,-0.21400,-9.24778
128.08780,-0.21401,-8.36444
128.08879,-0.21402,-7.53687
128.08980,-0.21403,-6.76370
128.09079,-0.21403,-6.04187
128.09180,-0.21404,-5.36736
128.09280,-0.21405,-4.73605
128.09380,-0.21406,-4.14452
128.09480,-0.21407,-3.59016
128.09580,-0.21408,-3.07107
128.09680,-0.21409,-2.58586
128.09999,-0.21411,-1.32426
128.10379,-0.21414,-0.09110
128.11080,-0.21417,0.93505
128.12180,-0.21420,1.16789
128.12680,-0.21420,0.84217
128.13980,-0.21419,0.00724
128.14380,-0.21419,-0.29409
128.17479,-0.21415,-1.09188
128.17780,-0.21414,-1.13994
128.20000,-0.21413,-1.08718
128.30000,-0.21408,-0.63213
128.39999,-0.21408,-0.43447
128.50000,-0.21411,-0.37524
128.59999,-0.21416,-0.31585
128.70000,-0.21425,-0.25229
128.80000,-0.21440,-0.23584
128.89999,-0.21461,-0.24066
129.00000,-0.21482,-0.26760
129.09999,-0.21503,-0.28999
129.20000,-0.21523,-0.32848
129.30000,-0.21540,-0.36702
129.39999,-0.21558,-0.40998
129.50000,-0.21575,-0.45305
129.59999,-0.21591,-0.51621
129.70000,-0.21608,-0.58971
129.80000,-0.21624,-0.66016
129.89999,-0.21641,-0.75144
130.00000,-0.21659,-0.83669
130.09999,-0.21675,-0.92165
130.20000,-0.21693,-1.00492
130.30000,-0.21709,-1.08431
130.39999,-0.21726,-1.15207
130.50000,-0.21743,-1.23256
130.59999,-0.21758,-1.29978
130.70000,-0.21776,-1.38408
130.80000,-0.21792,-1.46408
130.89999,-0.21809,-1.54902
131.00000,-0.21825,-1.64246
131.09998,-0.21841,-1.74589
131.20000,-0.21858,-1.85736
131.30000,-0.21876,-1.95744
131.40000,-0.21893,-2.06122
131.50000,-0.21909,-2.13706
131.59998,-0.21926,-2.23117
131.70000,-0.21943,-2.32561
131.80000,-0.21959,-2.40842
131.83480,-0.21965,-2.42609
131.90000,-0.21976,-2.49839
132.00000,-0.21993,-2.58319
132.09998,-0.22009,-2.68157
132.20000,-0.22025,-2.78825
132.30000,-0.22042,-2.90369
132.40000,-0.22059,-3.02554
132.50000,-0.22076,-3.14541
132.59998,-0.22093,-3.24921
132.70000,-0.22109,-3.33016
132.80000,-0.22127,-3.42847
132.90000,-0.22143,-3.52218
